"Fp1","Fpz","Fp2","F7","F3","Fz","F4","F8","FC5","FC1","FC2","FC6","T7","C3","Cz","C4","T8","CP5","CP1","CP2","CP6","P7","P3","Pz","P4","P8","POz","O1","Oz","O2"
-2.12041015625,-3.8236484375,0.71233203125,-3.49564453125,-14.0401640625,-4.26260546875,-8.9985625,-1.1785703125,-0.758867187499999,-11.3668828125,-7.5181796875,-8.81462890625,-1.728125,-9.01985546875,-10.59053515625,-13.95192578125,-10.6574453125,-3.3325078125,-8.8455234375,-7.97409375,-4.677484375,-1.09575,-8.052546875,-9.12330859375,-6.1575859375,-7.69990234375,-8.90330078125,4.22232421875,6.2675,4.1860625
-1.93041015625,-4.2606484375,-4.43466796875,-0.89064453125,-16.1371640625,-10.57160546875,-12.7515625,-5.3175703125,-0.3588671875,-15.7898828125,-13.1061796875,-9.97662890625,-7.107125,-10.69985546875,-16.22353515625,-15.63092578125,-5.4934453125,-5.4665078125,-11.7885234375,-8.98909375,-3.582484375,-5.62375,-9.633546875,-10.77630859375,-5.7925859375,-2.31390234375,-8.87930078125,1.11032421875,6.1625,4.2560625
-2.37641015625,-5.2666484375,-8.06866796875,-0.37864453125,-18.9831640625,-16.19460546875,-16.3295625,-6.7705703125,-1.5538671875,-20.4738828125,-18.0941796875,-10.04062890625,-9.784125,-13.16985546875,-21.68753515625,-16.89592578125,-1.9294453125,-7.5535078125,-14.8555234375,-11.03009375,-2.723484375,-8.73775,-11.834546875,-13.46830859375,-6.3645859375,1.41709765625,-10.72430078125,-1.58167578125,5.0675,3.8450625
-3.21041015625,-6.3026484375,-9.52066796875,-1.75264453125,-21.9561640625,-20.67360546875,-19.2615625,-5.7675703125,-4.2648671875,-24.8298828125,-22.2061796875,-9.19862890625,-9.503125,-16.12085546875,-26.43053515625,-17.60092578125,-0.1934453125,-9.3915078125,-17.8075234375,-13.98309375,-2.081484375,-10.22375,-14.491546875,-17.09330859375,-7.8435859375,3.39609765625,-14.41930078125,-3.82767578125,3.0025,2.9510625
-3.94641015625,-6.5466484375,-8.45766796875,-4.02664453125,-23.8751640625,-23.48360546875,-20.9545625,-3.4515703125,-7.6948671875,-27.9058828125,-25.1351796875,-8.06162890625,-6.927125,-18.79585546875,-29.70253515625,-17.68292578125,-0.243445312499999,-10.6795078125,-20.2305234375,-17.31809375,-1.625484375,-10.22075,-17.129546875,-21.10430859375,-9.8895859375,3.92009765625,-19.24430078125,-5.68967578125,0.3215,1.6730625
-4.14141015625,-5.3916484375,-5.11866796875,-5.95864453125,-23.5091640625,-24.15860546875,-20.9415625,-1.2485703125,-10.5938671875,-28.7858828125,-26.5331796875,-7.30362890625,-3.432125,-20.30085546875,-30.86953515625,-17.19592578125,-1.9324453125,-11.1245078125,-21.6895234375,-20.33309375,-1.419484375,-9.08975,-19.156546875,-24.73330859375,-12.0605859375,3.38309765625,-24.08230078125,-7.25567578125,-2.4955,0.0880625000000002
-3.53041015625,-2.7626484375,-0.33066796875,-6.61664453125,-20.1761640625,-22.46060546875,-19.0745625,-0.2085703125,-11.6818671875,-26.9818828125,-26.0881796875,-7.28462890625,-0.572125,-19.93885546875,-29.68953515625,-16.26592578125,-5.0064453125,-10.5335078125,-21.8825234375,-22.42009375,-1.650484375,-7.22975,-20.063546875,-27.25830859375,-14.0055859375,2.01809765625,-27.82830078125,-8.55767578125,-5.0495,-1.8439375
-1.99341015625,0.8813515625,4.71033203125,-5.69864453125,-14.1491640625,-18.53160546875,-15.5655625,-0.6655703125,-10.1158671875,-22.6318828125,-23.6401796875,-7.85362890625,0.569875,-17.42985546875,-26.40453515625,-14.98692578125,-8.9754453125,-8.8475078125,-20.6915234375,-23.20409375,-2.515484375,-4.91375,-19.528546875,-28.18030859375,-15.5285859375,-0.13690234375,-29.71430078125,-9.48667578125,-7.1085,-4.2229375
0.50258984375,4.7903515625,8.83233203125,-3.48664453125,-6.6401640625,-12.91860546875,-10.9095625,-2.2165703125,-5.8098671875,-16.4438828125,-19.3001796875,-8.47562890625,-0.136125,-12.99085546875,-21.60453515625,-13.32792578125,-13.0474453125,-6.1515078125,-18.1725234375,-22.53309375,-4.040484375,-2.24775,-17.442546875,-27.27230859375,-16.5245859375,-3.10390234375,-29.43930078125,-9.77167578125,-8.5365,-7.0339375
3.87558984375,8.2383515625,11.28033203125,-0.57064453125,0.6408359375,-6.46060546875,-5.7525625,-3.9485703125,0.4511328125,-9.4538828125,-13.4811796875,-8.54962890625,-1.829125,-7.27685546875,-15.99253515625,-11.16092578125,-16.3244453125,-2.6965078125,-14.5135234375,-20.42609375,-5.984484375,0.71125,-13.924546875,-24.56630859375,-16.8815859375,-6.75590234375,-27.12630078125,-9.06867578125,-9.1775,-9.9609375
7.82158984375,10.7623515625,11.93133203125,2.44235546875,6.1468359375,-0.07660546875,-0.765562500000001,-4.8425703125,7.1971328125,-2.7178828125,-6.8561796875,-7.74762890625,-3.067125,-1.22385546875,-10.17953515625,-8.40892578125,-18.1984453125,1.0834921875,-10.0125234375,-17.04009375,-7.903484375,3.77025,-9.327546875,-20.31730859375,-16.4425859375,-10.69190234375,-23.16130078125,-7.13467578125,-8.8015,-12.3549375
11.75758984375,12.2443515625,11.23233203125,5.11835546875,9.0858359375,5.45539453125,3.4774375,-4.2435703125,12.7481328125,2.9681171875,-0.2471796875,-6.15662890625,-2.531125,4.22014453125,-4.59953515625,-5.19092578125,-18.6424453125,4.6344921875,-5.0325234375,-12.65609375,-9.317484375,6.52225,-4.182546875,-14.94430859375,-15.0255859375,-14.23290234375,-17.99530078125,-3.98867578125,-7.1545,-13.4089375
14.93358984375,12.8343515625,9.87833203125,7.24135546875,9.6418359375,9.65439453125,6.6204375,-2.1825703125,15.8351328125,7.2221171875,5.5468203125,-4.19062890625,0.309875,8.37314453125,0.490464843750001,-1.84092578125,-18.1194453125,7.4454921875,0.0594765624999996,-7.65809375,-9.875484375,8.45825,0.915453125,-8.94130859375,-12.5035859375,-16.59090234375,-11.99730078125,0.03032421875,-4.1035,-12.4609375
16.68858984375,12.7913515625,8.47033203125,8.80235546875,8.7258359375,12.38739453125,8.5714375,0.6384296875,16.0931328125,10.0441171875,9.9388203125,-2.35462890625,4.923875,10.99514453125,4.95446484375,1.22607421875,-17.1424453125,9.2434921875,4.9514765625,-2.46709375,-9.414484375,9.23325,5.455453125,-2.77730859375,-8.8885859375,-17.13090234375,-5.45230078125,4.35432421875,0.2105,-9.2849375
16.71958984375,12.3513515625,7.34133203125,9.92035546875,7.4108359375,13.79639453125,9.4894375,3.1764296875,14.1431328125,11.6471171875,12.6678203125,-1.01862890625,10.000875,12.26414453125,8.71746484375,3.70607421875,-15.8674453125,10.0824921875,9.3694765625,2.50490625,-7.943484375,8.89625,9.105453125,3.12369140625,-4.4015859375,-15.63090234375,1.33669921875,8.35832421875,5.2905,-4.2439375
15.18158984375,11.6683515625,6.56733203125,10.70135546875,6.4098359375,14.13339453125,9.6804375,4.4864296875,11.2161328125,12.2691171875,13.7708203125,-0.32662890625,14.099875,12.57514453125,11.67846484375,5.49807421875,-14.0574453125,10.2624921875,13.0134765625,6.87090625,-5.617484375,7.89425,11.697453125,8.34869140625,0.4904140625,-12.42690234375,7.91169921875,11.51432421875,10.3325,1.7320625
12.54358984375,10.7773515625,6.06633203125,11.09835546875,5.8718359375,13.58239453125,9.4654375,4.1074296875,8.5341328125,12.0421171875,13.4528203125,-0.22562890625,16.223875,12.28214453125,13.64646484375,6.64107421875,-11.4744453125,10.1244921875,15.5054765625,10.23290625,-2.764484375,6.84125,13.146453125,12.42869140625,5.0904140625,-8.34490234375,13.61569921875,13.46032421875,14.3985,7.3580625
9.31658984375,9.5863515625,5.65533203125,10.86635546875,5.5448359375,12.18439453125,9.0104375,2.2844296875,6.8071328125,10.9741171875,11.9488203125,-0.57362890625,16.034875,11.52214453125,14.33646484375,7.15007421875,-8.3734453125,9.8404921875,16.4264765625,12.17290625,0.0885156250000003,6.17825,13.358453125,14.85769140625,8.5824140625,-4.44890234375,17.66569921875,13.99732421875,16.6745,11.3680625
5.87958984375,7.9253515625,5.08233203125,9.68535546875,5.0908359375,9.89039453125,8.2064375,-0.1225703125,6.0681328125,9.0241171875,9.4658203125,-1.21962890625,13.721875,10.20714453125,13.44246484375,6.89207421875,-5.6734453125,9.3394921875,15.4504765625,12.30190625,2.284515625,5.94325,12.227453125,15.21269140625,10.2154140625,-1.67390234375,19.35269921875,13.07032421875,16.7115,12.9050625
2.48658984375,5.6843515625,4.07933203125,7.39735546875,4.3248359375,6.68739453125,6.6934375,-2.0765703125,5.8511328125,6.2191171875,6.1838203125,-2.04462890625,9.788875,8.17714453125,10.78846484375,5.59307421875,-4.6084453125,8.4074921875,12.5104765625,10.38890625,3.209515625,5.79425,9.724453125,13.32169140625,9.5264140625,-0.531902343750001,18.25269921875,10.74532421875,14.5295,11.7540625
-0.59341015625,2.9783515625,2.49033203125,4.24635546875,3.2528359375,2.73639453125,4.0724375,-2.9455703125,5.5501328125,2.7551171875,2.3108203125,-2.97362890625,4.950875,5.39714453125,6.47546484375,2.98307421875,-6.0344453125,6.8794921875,7.9174765625,6.51690625,2.493515625,5.25425,6.015453125,9.38569140625,6.5154140625,-1.00490234375,14.37469921875,7.20032421875,10.5475,8.3230625
-2.98741015625,0.2183515625,0.42133203125,0.93635546875,1.9898359375,-1.56560546875,0.2134375,-2.7975703125,4.7751328125,-0.997882812499999,-1.8341796875,-3.99162890625,0.0988750000000003,2.07314453125,0.980464843750001,-0.98592578125,-9.8194453125,4.8024921875,2.3434765625,1.16290625,0.167515625,4.03025,1.515453125,3.99169140625,1.6844140625,-2.65390234375,8.18169921875,2.74332421875,5.4095,3.4370625
-4.25941015625,-1.9716484375,-1.68066796875,-1.55464453125,0.6598359375,-5.61060546875,-4.4945625,-2.2325703125,3.5681328125,-4.5638828125,-5.7751796875,-5.13962890625,-3.832125,-1.36085546875,-4.87453515625,-5.94892578125,-14.7234453125,2.4844921875,-3.2945234375,-4.83109375,-3.280484375,2.21425,-3.147546875,-1.99830859375,-4.0445859375,-4.84490234375,0.523699218750001,-2.11767578125,-0.1315,-1.8919375
-4.05741015625,-2.9456484375,-3.11866796875,-2.34964453125,-0.6281640625,-8.71260546875,-9.1265625,-1.9415703125,2.3831328125,-7.4668828125,-8.9231796875,-6.46762890625,-6.140125,-4.34085546875,-10.07953515625,-11.08592578125,-18.8794453125,0.4074921875,-8.0335234375,-10.40809375,-6.965484375,0.28225,-7.228546875,-7.60830859375,-9.5185859375,-6.93290234375,-7.47630078125,-6.63067578125,-5.2485,-6.6619375
-2.27441015625,-2.2626484375,-3.21266796875,-1.08164453125,-1.7581640625,-10.29160546875,-12.4885625,-2.2985703125,1.8431328125,-9.3158828125,-10.7251796875,-7.92162890625,-6.613125,-6.31185546875,-13.69453515625,-15.29692578125,-20.6474453125,-0.9415078125,-11.0755234375,-14.54109375,-9.824484375,-1.12075,-10.018546875,-11.95530859375,-13.6355859375,-8.37890234375,-14.58730078125,-9.90367578125,-9.0985,-10.0459375
0.82658984375,0.0933515624999997,-1.64566796875,1.90335546875,-2.6051640625,-10.07460546875,-13.5665625,-3.1585703125,2.3671328125,-9.9048828125,-10.8491796875,-9.25462890625,-5.550125,-6.90085546875,-15.13353515625,-17.58592578125,-19.3964453125,-1.2725078125,-11.9855234375,-16.52409375,-10.975484375,-1.48875,-11.034546875,-14.43330859375,-15.6385859375,-8.83690234375,-19.70430078125,-11.20267578125,-10.9965,-11.5389375
4.59558984375,3.6033515625,1.29433203125,5.62035546875,-3.0921640625,-8.23360546875,-11.9595625,-3.8985703125,3.8361328125,-9.3098828125,-9.3141796875,-10.06162890625,-3.498125,-6.09285546875,-14.34353515625,-17.45292578125,-15.7634453125,-0.6385078125,-10.8295234375,-16.19309375,-10.053484375,-0.71675,-10.201546875,-14.84930859375,-15.3355859375,-8.21290234375,-22.11630078125,-10.29267578125,-10.6715,-11.0419375
8.13658984375,7.3083515625,4.74633203125,8.77635546875,-3.2821640625,-5.38860546875,-8.0885625,-3.7115703125,5.4891328125,-7.9108828125,-6.5311796875,-9.96662890625,-0.953125,-4.30285546875,-11.81553515625,-15.10692578125,-11.2634453125,0.5434921875,-8.1735234375,-13.96309375,-7.353484375,0.81925,-7.915546875,-13.44330859375,-13.1175859375,-6.67290234375,-21.67330078125,-7.59667578125,-8.3865,-8.8309375
10.56058984375,10.1223515625,7.59533203125,10.22135546875,-3.4051640625,-2.45960546875,-3.1055625,-2.0845703125,6.1781328125,-6.2818828125,-3.2461796875,-8.85662890625,1.720875,-2.26185546875,-8.42953515625,-11.38392578125,-7.5064453125,1.6424921875,-4.9055234375,-10.65509375,-3.700484375,2.41725,-4.931546875,-10.78230859375,-9.7725859375,-4.57190234375,-18.77030078125,-4.03367578125,-4.8335,-5.4329375
11.25458984375,11.2143515625,8.89133203125,9.35935546875,-3.7361640625,-0.37960546875,1.4584375,0.7944296875,4.9341328125,-4.9928828125,-0.366179687500001,-7.02862890625,4.143875,-0.73285546875,-5.18953515625,-7.44192578125,-5.5064453125,2.0584921875,-1.9515234375,-7.20809375,-0.148484375,3.34925,-2.106546875,-7.58530859375,-6.2015859375,-2.38390234375,-14.17430078125,-0.62667578125,-0.8545,-1.4719375
10.04558984375,10.2603515625,8.17933203125,6.39635546875,-4.3891640625,0.23139453125,4.1924375,3.9864296875,1.5351328125,-4.3988828125,1.3258203125,-5.12062890625,5.817875,-0.20385546875,-2.92653515625,-4.34992578125,-5.3914453125,1.4544921875,0.0174765624999988,-4.38909375,2.369515625,3.18025,-0.128546875000001,-4.55130859375,-3.1575859375,-0.62890234375,-8.80230078125,1.88332421875,2.8335,2.4540625
7.23558984375,7.5273515625,5.64633203125,2.28535546875,-5.1351640625,-0.67660546875,4.3394375,6.1924296875,-3.2688671875,-4.4998828125,1.4808203125,-3.84462890625,6.244875,-0.70085546875,-2.03853515625,-2.73292578125,-6.5604453125,-0.1325078125,0.764476562499999,-2.59909375,3.322515625,1.91825,0.654453125,-2.21530859375,-1.0845859375,0.20109765625,-3.52430078125,3.20732421875,5.7685,5.8310625
3.53158984375,3.8153515625,2.08633203125,-1.61464453125,-5.4181640625,-2.53860546875,2.1364375,6.3454296875,-8.0488671875,-4.9038828125,0.3588203125,-3.63362890625,5.167875,-1.80685546875,-2.36153515625,-2.56192578125,-8.0954453125,-2.3375078125,0.497476562499999,-1.80209375,2.723515625,-0.0457499999999998,0.287453125,-0.86230859375,-0.0405859374999995,-0.21390234375,0.978699218750001,3.43132421875,7.7405,8.2460625
-0.12141015625,0.2483515625,-1.34366796875,-4.06064453125,-4.6001640625,-4.37960546875,-1.2415625,4.1314296875,-11.3128671875,-4.9588828125,-1.2551796875,-4.41962890625,2.678875,-2.86085546875,-3.23253515625,-3.21792578125,-9.2014453125,-4.6275078125,-0.2755234375,-1.59009375,1.087515625,-2.16375,-0.877546875,-0.48030859375,0.2594140625,-1.88290234375,4.30669921875,2.82832421875,8.7345,9.4520625
-2.79641015625,-2.1176484375,-3.55466796875,-4.37064453125,-2.3691640625,-5.24260546875,-4.1925625,0.1604296875,-12.1188671875,-4.0538828125,-2.3711796875,-5.65162890625,-0.916125,-3.27485546875,-3.77653515625,-3.79692578125,-9.5104453125,-6.4975078125,-0.983523437500001,-1.38609375,-0.811484375,-3.97475,-2.342546875,-0.80730859375,0.2964140625,-4.43390234375,6.37469921875,1.70232421875,8.8775,9.4630625
-3.88941015625,-2.7266484375,-4.01166796875,-2.64564453125,0.9318359375,-4.62760546875,-5.4255625,-4.2745703125,-10.3908671875,-1.9618828125,-2.2251796875,-6.59462890625,-5.313125,-2.79085546875,-3.29253515625,-3.53292578125,-9.1764453125,-7.6375078125,-1.2215234375,-0.71509375,-2.254484375,-5.23375,-3.638546875,-1.43330859375,0.5364140625,-7.18990234375,7.38569921875,0.36632421875,8.4115,8.6080625
-3.33041015625,-1.7596484375,-2.95666796875,0.30935546875,4.3138359375,-2.72460546875,-4.5195625,-7.7535703125,-6.8698671875,0.987117187500001,-0.6151796875,-6.73262890625,-10.287125,-1.55685546875,-1.56053515625,-2.11092578125,-8.6974453125,-7.9695078125,-0.830523437500001,0.620906250000001,-2.826484375,-5.87875,-4.403546875,-1.91830859375,1.2634140625,-9.35390234375,7.74269921875,-0.81467578125,7.6645,7.4650625
-1.62541015625,0.00035156249999968,-1.20766796875,3.29635546875,6.5618359375,-0.28660546875,-2.0015625,-9.3085703125,-2.7748671875,4.0421171875,2.0338203125,-6.02362890625,-15.544125,0.0221445312499999,1.11246484375,0.276074218750001,-8.5814453125,-7.5895078125,0.161476562499999,2.52790625,-2.466484375,-5.90675,-4.382546875,-1.85730859375,2.5264140625,-10.24490234375,7.92769921875,-1.39467578125,7.0305,6.6750625
0.33758984375,1.5693515625,0.32233203125,5.15935546875,6.8498359375,1.77539453125,1.0504375,-8.7195703125,0.6561328125,6.4001171875,4.9078203125,-4.85962890625,-20.513125,1.52914453125,4.10946484375,3.11307421875,-8.9854453125,-6.6595078125,1.6714765625,4.75790625,-1.372484375,-5.28575,-3.403546875,-0.93730859375,4.2054140625,-9.51390234375,8.35069921875,-0.93167578125,6.8985,6.7120625
1.63058984375,2.2023515625,1.07833203125,5.19335546875,5.1558359375,2.84039453125,3.6034375,-6.4545703125,2.5401328125,7.5691171875,7.2038203125,-3.78562890625,-24.304125,2.71514453125,6.84046484375,5.81807421875,-9.5854453125,-5.3555078125,3.6354765625,7.05990625,0.167515625,-3.99575,-1.425546875,0.98669140625,6.1044140625,-7.25690234375,9.19469921875,0.82732421875,7.5175,7.7190625
1.65358984375,1.6783515625,1.04233203125,3.38035546875,2.2388359375,2.81539453125,5.0964375,-3.3875703125,2.5381328125,7.5441171875,8.4638203125,-3.17562890625,-25.955125,3.53014453125,8.98146484375,7.93707421875,-9.7694453125,-3.8655078125,5.9604765625,9.25190625,1.903515625,-2.16475,1.383453125,3.77969140625,8.0134140625,-3.98590234375,10.33769921875,3.74332421875,8.8405,9.4250625
0.36158984375,0.3183515625,0.60133203125,0.35435546875,-0.7701640625,2.08139453125,5.5334375,-0.4575703125,0.8331328125,6.7461171875,8.6638203125,-3.07162890625,-24.862125,4.06114453125,10.49946484375,9.22107421875,-9.0814453125,-2.4065078125,8.4324765625,11.19590625,3.683515625,-0.14675,4.603453125,6.95669140625,9.7154140625,-0.44390234375,11.38969921875,7.20132421875,10.4445,11.1920625
-1.79441015625,-1.2676484375,0.21833203125,-2.87664453125,-2.8581640625,1.21639453125,5.2444375,1.6314296875,-1.9918671875,5.7831171875,8.0858203125,-3.23062890625,-21.159125,4.42014453125,11.48646484375,9.59207421875,-7.6284453125,-1.2005078125,10.6694765625,12.71590625,5.404515625,1.54325,7.618453125,9.74569140625,10.9614140625,2.61109765625,11.84469921875,10.23132421875,11.6105,12.2030625
-4.13041015625,-2.5616484375,0.0733320312499997,-5.31364453125,-3.4891640625,0.67239453125,4.5454375,2.5504296875,-5.1318671875,5.1411171875,7.0618203125,-3.34762890625,-15.797125,4.65314453125,11.95646484375,9.04407421875,-6.1514453125,-0.4175078125,12.1894765625,13.52190625,6.898515625,2.45425,9.772453125,11.29169140625,11.4514140625,4.58609765625,11.27269921875,11.82432421875,11.5745,11.7430625
-6.04841015625,-3.4216484375,-0.0936679687500002,-6.31764453125,-2.7261640625,0.55639453125,3.5084375,2.2884296875,-7.7788671875,4.9701171875,5.7598203125,-3.30162890625,-10.262125,4.71214453125,11.73846484375,7.55307421875,-5.6524453125,-0.0955078125000001,12.5554765625,13.21690625,7.850515625,2.43325,10.569453125,10.93569140625,10.8834140625,5.15009765625,9.49769921875,11.32332421875,9.8655,9.4960625
-7.20641015625,-4.0586484375,-0.79666796875,-5.77264453125,-1.1081640625,0.64839453125,2.0204375,0.9844296875,-9.3398671875,5.0671171875,4.1208203125,-3.26662890625,-6.009125,4.50814453125,10.54646484375,5.09607421875,-6.7794453125,-0.1005078125,11.5524765625,11.46290625,7.870515625,1.72825,9.860453125,8.47669140625,9.1064140625,4.30909765625,6.68869921875,8.75332421875,6.5955,5.7350625
-7.52241015625,-4.7386484375,-2.36066796875,-4.02964453125,0.6208359375,0.60939453125,0.0234375,-1.1505703125,-9.6028671875,5.0571171875,2.0118203125,-3.57262890625,-3.853125,4.01514453125,8.19846484375,1.79707421875,-9.3384453125,-0.1535078125,9.2984765625,8.22890625,6.722515625,0.88725,7.923453125,4.30369140625,6.3104140625,2.44609765625,3.34569921875,4.90932421875,2.5335,1.3270625
-7.07941015625,-5.4906484375,-4.53866796875,-1.71564453125,1.8048359375,0.23939453125,-2.2575625,-3.7545703125,-8.7858671875,4.6261171875,-0.531179687500001,-4.43162890625,-3.609125,3.31714453125,4.82346484375,-1.91392578125,-12.2544453125,0.0514921875,6.2294765625,3.96090625,4.596515625,0.50425,5.389453125,-0.67830859375,3.1114140625,0.29609765625,0.15969921875,1.09932421875,-1.1295,-2.4919375
-6.06941015625,-6.0586484375,-6.56066796875,0.48035546875,2.0528359375,-0.41760546875,-4.3275625,-6.2615703125,-7.4458671875,3.6581171875,-3.1841796875,-5.71162890625,-4.207125,2.55614453125,0.900464843750001,-5.31792578125,-14.0294453125,0.6664921875,2.9504765625,-0.47209375,2.173515625,0.91625,3.004453125,-5.33630859375,0.4164140625,-1.20990234375,-2.21930078125,-1.38267578125,-3.2745,-4.5189375
-4.79141015625,-6.1376484375,-7.60266796875,1.95335546875,1.2508359375,-1.19060546875,-5.6735625,-8.0725703125,-6.2738671875,2.2231171875,-5.4581796875,-6.92762890625,-4.284125,1.82814453125,-2.91953515625,-7.62792578125,-13.4964453125,1.5884921875,0.012476562499999,-4.08009375,0.402515625,2.03425,1.359453125,-8.69730859375,-0.914585937499999,-1.23490234375,-3.40830078125,-1.82367578125,-3.3435,-4.0649375
-3.67141015625,-5.6956484375,-7.35566796875,2.29335546875,-0.4931640625,-1.99960546875,-6.0785625,-8.8705703125,-5.8338671875,0.466117187500001,-6.9831796875,-7.47362890625,-2.949125,1.10814453125,-6.09553515625,-8.32692578125,-10.4544453125,2.4944921875,-2.2515234375,-6.15109375,0.0765156249999999,3.40225,0.707453125,-10.27530859375,-0.4535859375,0.60809765625,-3.43130078125,-0.37067578125,-1.5725,-1.2779375
-3.19841015625,-5.0966484375,-6.23966796875,1.37935546875,-2.9211640625,-2.94460546875,-5.7605625,-8.7875703125,-6.3628671875,-1.4938828125,-7.6941796875,-6.96262890625,-0.308125,0.27714453125,-8.38153515625,-7.39692578125,-5.8254453125,3.0164921875,-3.7795234375,-6.52509375,1.448515625,4.43825,0.915453125,-10.20130859375,1.5804140625,4.01509765625,-2.69230078125,2.10332421875,1.1465,2.8620625
-3.73941015625,-4.8996484375,-5.10766796875,-0.55964453125,-5.6581640625,-4.21560546875,-5.2275625,-8.2785703125,-7.6898671875,-3.5938828125,-7.8041796875,-5.46262890625,2.575875,-0.78985546875,-9.82953515625,-5.32492578125,-1.2014453125,2.9324921875,-4.7165234375,-5.63009375,4.079515625,4.72425,1.566453125,-9.11630859375,4.3654140625,8.01609765625,-1.80630078125,4.44332421875,3.6695,6.8970625
-5.29441015625,-5.4506484375,-4.67466796875,-2.99064453125,-8.2421640625,-5.87460546875,-4.9545625,-7.8165703125,-9.3398671875,-5.7448828125,-7.6221796875,-3.48762890625,4.235875,-2.10585546875,-10.64253515625,-2.90792578125,1.9535546875,2.2584921875,-5.2925234375,-4.25909375,6.994515625,4.17425,2.142453125,-7.88130859375,6.7884140625,11.30009765625,-1.32930078125,5.73232421875,5.0655,9.4210625
-7.37341015625,-6.5966484375,-5.10666796875,-5.22464453125,-10.1711640625,-7.70260546875,-5.1055625,-7.6405703125,-10.7478671875,-7.7288828125,-7.3631796875,-1.74762890625,3.558875,-3.51885546875,-10.98853515625,-0.968925781249999,2.9715546875,1.2074921875,-5.6895234375,-3.21909375,9.053515625,3.04525,2.246453125,-7.20530859375,7.8754140625,12.71809765625,-1.51030078125,5.64632421875,4.9325,9.5860625
-9.14841015625,-7.7456484375,-6.01166796875,-6.65764453125,-10.9731640625,-9.19260546875,-5.4705625,-7.6595703125,-11.4548671875,-9.1488828125,-7.0411796875,-0.83362890625,0.325875,-4.73085546875,-10.88553515625,-0.10492578125,2.1345546875,0.0814921875,-5.9495234375,-2.99909375,9.379515625,1.80625,1.756453125,-7.34030859375,7.1594140625,11.72309765625,-2.17530078125,4.51532421875,3.4745,7.3900625
-9.79841015625,-8.1876484375,-6.74866796875,-6.96364453125,-10.2891640625,-9.71160546875,-5.6355625,-7.5485703125,-11.2048671875,-9.4978828125,-6.4581796875,-0.99362890625,-4.663125,-5.38285546875,-10.18353515625,-0.51492578125,0.2715546875,-0.8415078125,-5.9525234375,-3.60009375,7.682515625,0.95225,0.878453125,-7.95230859375,4.8514140625,8.57009765625,-2.80530078125,3.08532421875,1.3345,3.6630625
-8.83741015625,-7.4356484375,-6.76266796875,-6.14464453125,-7.9951640625,-8.73260546875,-5.2065625,-7.0025703125,-9.9348671875,-8.3078828125,-5.2861796875,-2.05962890625,-9.890125,-5.14685546875,-8.64853515625,-1.93292578125,-1.8364453125,-1.3565078125,-5.4535234375,-4.57709375,4.345515625,0.82025,0.0584531249999998,-8.24330859375,1.7284140625,4.18709765625,-2.77030078125,2.13132421875,-0.7005,-0.2939375
-6.25141015625,-5.3526484375,-5.72566796875,-4.40264453125,-4.2781640625,-6.02960546875,-3.9295625,-5.9935703125,-7.7328671875,-5.3188828125,-3.2051796875,-3.52762890625,-13.696125,-3.80185546875,-6.10553515625,-3.70792578125,-3.8424453125,-1.3395078125,-4.1965234375,-5.25909375,0.253515625,1.44825,-0.210546875,-7.28530859375,-1.2095859375,-0.23490234375,-1.63030078125,2.08732421875,-2.0195,-3.2769375
-2.43941015625,-2.1006484375,-3.51966796875,-1.95264453125,0.3798359375,-1.76360546875,-1.6995625,-4.7755703125,-4.8148671875,-0.618882812499999,-0.0611796875000001,-4.74762890625,-14.895125,-1.30285546875,-2.58353515625,-5.05192578125,-5.7944453125,-0.7685078125,-2.0585234375,-5.07809375,-3.607484375,2.54025,0.387453125,-4.44030859375,-3.1795859375,-3.76790234375,0.651699218749999,2.86732421875,-2.4225,-4.7189375
1.92658984375,1.9373515625,-0.231667968750001,1.05935546875,5.3428359375,3.54439453125,1.4334375,-3.6205703125,-1.5308671875,5.2661171875,4.0138203125,-5.19962890625,-13.173125,2.12514453125,1.58646484375,-5.38392578125,-7.8104453125,0.2474921875,0.821476562499999,-3.84409375,-6.567484375,3.55325,1.828453125,0.29469140625,-3.9485859375,-6.14790234375,3.67269921875,3.94332421875,-2.1615,-4.9099375
6.04158984375,6.1693515625,3.73433203125,4.48235546875,9.9718359375,9.09539453125,5.2154375,-2.5975703125,1.6461328125,11.3861171875,8.5378203125,-4.71062890625,-9.113125,5.93514453125,5.77646484375,-4.58192578125,-9.7704453125,1.4534921875,4.0004765625,-1.83409375,-8.493484375,3.89925,3.749453125,6.20869140625,-3.8625859375,-7.78190234375,6.77669921875,4.63232421875,-1.7535,-4.7419375
9.09858984375,9.8023515625,7.53233203125,7.98635546875,13.7088359375,13.93239453125,9.1264375,-1.6185703125,4.2021328125,16.5241171875,12.7068203125,-3.52062890625,-3.871125,9.33114453125,9.18246484375,-3.00492578125,-11.2504453125,2.4974921875,6.8514765625,0.36490625,-9.685484375,3.18425,5.622453125,12.12169140625,-3.5485859375,-9.36990234375,9.35969921875,4.42732421875,-1.6345,-5.1049375
10.45058984375,11.9573515625,9.98133203125,10.98635546875,16.0648359375,17.11639453125,12.4364375,-0.6635703125,5.7031328125,19.5141171875,15.5818203125,-2.12962890625,1.287875,11.48714453125,11.06646484375,-1.25992578125,-11.7044453125,3.0494921875,8.7934765625,2.17690625,-10.537484375,1.37225,6.999453125,16.88369140625,-3.4695859375,-11.34790234375,11.14069921875,3.24732421875,-1.8675,-6.2829375
9.78658984375,11.9693515625,10.00833203125,12.75935546875,16.6478359375,17.97739453125,14.4224375,0.0884296875000001,5.9461328125,19.6281171875,16.4308203125,-1.05962890625,5.342875,11.85614453125,11.04246484375,0.146074218750001,-10.7804453125,2.9414921875,9.5594765625,3.33090625,-11.177484375,-1.19975,7.704453125,19.87169140625,-3.5905859375,-13.52590234375,12.23869921875,1.47732421875,-2.0905,-7.7199375
7.28258984375,9.7343515625,7.23533203125,12.73435546875,15.2748359375,16.37239453125,14.6304375,0.3624296875,5.0421328125,16.8881171875,15.0568203125,-0.625628906249999,7.656875,10.42614453125,9.27446484375,1.05807421875,-8.5704453125,2.2624921875,9.3164765625,3.97590625,-11.328484375,-3.95175,7.866453125,21.20569140625,-3.3775859375,-15.11390234375,13.04469921875,-0.17767578125,-1.7475,-8.2909375
3.59458984375,5.8733515625,2.29433203125,10.75235546875,12.1278359375,12.76739453125,13.0504375,-0.0265703124999999,3.3671328125,12.1141171875,11.8918203125,-0.86462890625,7.906875,7.76214453125,6.42046484375,1.67607421875,-5.6504453125,1.3264921875,8.5684765625,4.53390625,-10.470484375,-6.26075,7.787453125,21.53869140625,-2.1255859375,-15.09890234375,13.96269921875,-0.98567578125,-0.4355,-6.9229375
-0.35341015625,1.5033515625,-3.41966796875,7.16835546875,7.7808359375,8.07039453125,10.0634375,-1.0675703125,1.3721328125,6.6241171875,7.7738203125,-1.61562890625,5.968875,4.76314453125,3.33046484375,2.30807421875,-2.8844453125,0.5084921875,7.8624765625,5.38490625,-8.204484375,-7.68575,7.720453125,21.56769140625,0.5624140625,-12.76590234375,15.16269921875,-0.48867578125,1.8255,-3.2219375
-3.71641015625,-2.2726484375,-8.40766796875,2.73035546875,3.0438359375,3.29139453125,6.2414375,-2.5675703125,-0.6288671875,1.7121171875,3.5708203125,-2.68862890625,1.935875,2.23814453125,0.663464843750001,3.05607421875,-1.0654453125,0.0174921875,7.4644765625,6.55990625,-4.608484375,-8.10175,7.687453125,21.57769140625,4.4294140625,-8.12590234375,16.45869921875,1.28532421875,4.5465,2.2440625
-5.99241015625,-4.8096484375,-11.68266796875,-1.66064453125,-1.2741640625,-0.74960546875,2.1984375,-4.2405703125,-2.5478671875,-1.7878828125,-0.0791796874999999,-3.96262890625,-3.700125,0.56214453125,-1.30853515625,3.67907421875,-0.602445312499999,-0.2395078125,7.2364765625,7.66690625,-0.345484375,-7.70875,7.442453125,21.32269140625,8.5604140625,-2.02590234375,17.37569921875,3.79832421875,6.9565,8.1430625
-7.06441015625,-5.9936484375,-12.94766796875,-5.20664453125,-4.5491640625,-3.52960546875,-1.4265625,-5.8225703125,-4.4288671875,-3.6258828125,-2.8171796875,-5.30862890625,-9.884125,-0.38685546875,-2.61853515625,3.73407421875,-1.3884453125,-0.5985078125,6.7874765625,8.10690625,3.549515625,-6.90575,6.636453125,20.27269140625,11.7494140625,4.12009765625,17.40569921875,6.18632421875,8.3275,12.9360625
-7.06041015625,-6.0106484375,-12.39266796875,-7.40664453125,-6.4011640625,-4.79060546875,-3.9645625,-7.1365703125,-6.2698671875,-3.9818828125,-4.4761796875,-6.47562890625,-15.111125,-1.01185546875,-3.37753515625,2.87807421875,-2.8974453125,-1.4315078125,5.7684765625,7.43790625,6.081515625,-6.11175,5.049453125,18.03669140625,13.0274140625,8.87409765625,16.28469921875,7.58232421875,8.2735,15.5010625
-6.21641015625,-5.0986484375,-10.40766796875,-8.15564453125,-6.7031640625,-4.49660546875,-4.8865625,-8.0745703125,-7.9138671875,-3.2388828125,-5.0051796875,-7.09162890625,-17.963125,-1.69785546875,-3.60953515625,1.11407421875,-4.4234453125,-2.9175078125,4.1044765625,5.62990625,6.700515625,-5.61175,2.748453125,14.66069140625,12.0834140625,11.32009765625,14.14569921875,7.48132421875,6.8955,15.5500625
-4.81041015625,-3.4966484375,-7.46066796875,-7.72864453125,-5.6071640625,-2.87460546875,-4.0785625,-8.5215703125,-9.0848671875,-1.8538828125,-4.4861796875,-6.86562890625,-17.807125,-2.62785546875,-3.29253515625,-1.18292578125,-5.3534453125,-4.9305078125,2.0124765625,3.08090625,5.492515625,-5.48675,0.0904531249999998,10.63869140625,9.3524140625,11.37609765625,11.44269921875,5.97432421875,4.7155,13.6700625
-3.17241015625,-1.5536484375,-4.16966796875,-6.67064453125,-3.6001640625,-0.48660546875,-2.0225625,-8.3565703125,-9.5328671875,-0.342882812499999,-3.2361796875,-5.83462890625,-15.189125,-3.78385546875,-2.53253515625,-3.44092578125,-5.3964453125,-7.0945078125,-0.156523437500001,0.39790625,3.100515625,-5.63875,-2.429546875,6.66069140625,5.7834140625,9.74209765625,8.72469921875,3.72332421875,2.4585,11.0080625
-1.69141015625,0.1913515625,-1.34466796875,-5.61664453125,-1.4971640625,1.77039453125,0.305437499999999,-7.5595703125,-9.2248671875,0.7091171875,-1.8801796875,-4.44262890625,-11.608125,-5.07885546875,-1.72353515625,-5.18292578125,-4.6964453125,-8.9725078125,-2.1385234375,-1.91009375,0.417515625,-5.89575,-4.403546875,3.26669140625,2.4004140625,7.53209765625,6.39369921875,1.61932421875,0.7565,8.7460625
-0.80941015625,1.0623515625,0.13633203125,-5.11664453125,-0.2901640625,2.83239453125,1.7894375,-6.3295703125,-8.4438671875,0.692117187500001,-1.2731796875,-3.38962890625,-8.761125,-6.49185546875,-1.52853515625,-6.23692578125,-3.7614453125,-10.2855078125,-3.8985234375,-3.67009375,-1.797484375,-6.14275,-5.698546875,0.604691406250001,-0.119585937499999,5.75409765625,4.55669921875,0.29532421875,-0.1225,7.5920625
-0.95741015625,0.4633515625,-0.34766796875,-5.48564453125,-0.8291640625,1.83039453125,1.5874375,-5.0615703125,-7.7308671875,-0.877882812499999,-2.2021796875,-3.30462890625,-7.763125,-8.09185546875,-2.62253515625,-6.77492578125,-3.1974453125,-11.0055078125,-5.5995234375,-5.06209375,-3.183484375,-6.39275,-6.492546875,-1.55530859375,-1.6425859375,4.87209765625,3.04469921875,-0.22467578125,-0.3885,7.5380625
-2.39641015625,-1.8096484375,-2.81166796875,-6.71164453125,-3.4271640625,-1.51160546875,-0.5625625,-4.2105703125,-7.6448671875,-4.1198828125,-4.9991796875,-4.44262890625,-8.745125,-9.90985546875,-5.30753515625,-7.13292578125,-3.3204453125,-11.2745078125,-7.4165234375,-6.41309375,-3.818484375,-6.72075,-7.118546875,-3.55730859375,-2.4695859375,4.66909765625,1.57169921875,-0.48967578125,-0.5955,7.9660625
-4.99641015625,-5.3326484375,-6.51066796875,-8.46264453125,-7.6261640625,-6.63860546875,-4.2445625,-4.1315703125,-8.4398671875,-8.5748828125,-9.2871796875,-6.56062890625,-10.949125,-11.76585546875,-9.23953515625,-7.56192578125,-3.9134453125,-11.2065078125,-9.3185234375,-7.90509375,-4.047484375,-7.12475,-7.797546875,-5.55330859375,-3.0475859375,4.47009765625,-0.0523007812499996,-1.21567578125,-1.3065,8.0350625
-8.12641015625,-9.0726484375,-10.13466796875,-10.19664453125,-12.2711640625,-12.27460546875,-8.5025625,-4.9115703125,-9.8438671875,-13.2218828125,-14.0291796875,-8.99662890625,-13.151125,-13.21485546875,-13.45853515625,-8.06792578125,-4.3454453125,-10.7745078125,-11.0095234375,-9.38809375,-4.235484375,-7.43675,-8.484546875,-7.35830859375,-3.6755859375,3.56009765625,-1.78330078125,-2.81467578125,-2.7615,7.1120625
-10.80441015625,-11.7766484375,-12.34966796875,-11.36764453125,-15.9271640625,-16.86160546875,-12.1525625,-6.2465703125,-11.1258671875,-16.7928828125,-17.8801796875,-10.91262890625,-14.161125,-13.73085546875,-16.72753515625,-8.41292578125,-4.0424453125,-9.8615078125,-12.0585234375,-10.44309375,-4.576484375,-7.38675,-8.922546875,-8.56130859375,-4.3955859375,1.56809765625,-3.36330078125,-5.15667578125,-4.7645,5.0500625
-12.09041015625,-12.5396484375,-12.41866796875,-11.62364453125,-17.4561640625,-19.15560546875,-14.1885625,-7.4855703125,-11.4618671875,-18.2668828125,-19.6861796875,-11.58162890625,-13.242125,-12.99985546875,-18.02453515625,-8.27092578125,-2.9604453125,-8.4395078125,-12.1355234375,-10.62209375,-5.053484375,-6.78975,-8.855546875,-8.79930859375,-5.0505859375,-1.35790234375,-4.46330078125,-7.69067578125,-6.8105,2.2170625
-11.52241015625,-11.2376484375,-10.54966796875,-10.91364453125,-16.4511640625,-18.69560546875,-14.1515625,-7.9265703125,-10.4178671875,-17.2728828125,-18.9401796875,-10.63962890625,-10.358125,-11.14085546875,-16.94253515625,-7.40992578125,-1.6534453125,-6.7075078125,-11.2075234375,-9.70909375,-5.523484375,-5.72475,-8.227546875,-8.00330859375,-5.4285859375,-4.62090234375,-4.84030078125,-9.78467578125,-8.3555,-0.7079375
-9.33641015625,-8.5506484375,-7.73266796875,-9.46064453125,-13.3551640625,-15.93160546875,-12.2895625,-7.2305703125,-8.2398671875,-14.2038828125,-15.9801796875,-8.22962890625,-6.178125,-8.68685546875,-13.83053515625,-5.83792578125,-0.867445312499999,-5.0915078125,-9.5755234375,-7.85009375,-5.848484375,-4.57475,-7.234546875,-6.46430859375,-5.3765859375,-7.43690234375,-4.44030078125,-11.04767578125,-9.0595,-3.0319375
-6.35941015625,-5.5756484375,-5.17066796875,-7.64364453125,-9.2061640625,-11.94860546875,-9.4385625,-5.6335703125,-5.7498671875,-10.0358828125,-11.8161796875,-4.99462890625,-1.804125,-6.36285546875,-9.62953515625,-3.82292578125,-0.986445312499999,-4.0905078125,-7.7685234375,-5.51009375,-5.979484375,-3.89375,-6.244546875,-4.72230859375,-4.8755859375,-9.18490234375,-3.42730078125,-11.46367578125,-8.9025,-4.3249375
-3.63041015625,-3.2856484375,-3.65066796875,-5.89964453125,-5.1921640625,-7.96160546875,-6.6345625,-3.8135703125,-3.9298671875,-5.9448828125,-7.6731796875,-1.87962890625,1.673875,-4.80985546875,-5.49153515625,-1.80992578125,-1.7544453125,-4.0865078125,-6.3325234375,-3.28109375,-5.975484375,-4.17275,-5.627546875,-3.31830859375,-4.0625859375,-9.66590234375,-2.13730078125,-11.31367578125,-8.1425,-4.5359375
-1.95541015625,-2.1066484375,-3.22366796875,-4.64364453125,-2.2361640625,-4.83360546875,-4.6325625,-2.5185703125,-3.4748671875,-2.8988828125,-4.4921796875,0.20437109375,3.550875,-4.35985546875,-2.36053515625,-0.22792578125,-2.4994453125,-5.1905078125,-5.6145234375,-1.64409375,-5.929484375,-5.61675,-5.585546875,-2.54630859375,-3.1695859375,-9.13790234375,-0.94730078125,-10.94667578125,-7.1445,-3.9209375
-1.60441015625,-1.8376484375,-3.34266796875,-4.17164453125,-0.7561640625,-2.83960546875,-3.5885625,-2.2025703125,-4.5158671875,-1.3628828125,-2.6321796875,0.75337109375,3.605875,-4.94685546875,-0.67153515625,0.708074218750001,-2.6514453125,-7.1785078125,-5.6165234375,-0.76009375,-5.848484375,-8.02675,-6.029546875,-2.30630859375,-2.3895859375,-8.09990234375,-0.0753007812500002,-10.54267578125,-6.1505,-2.8259375
-2.30141015625,-1.9096484375,-3.34866796875,-4.50664453125,-0.6491640625,-1.72860546875,-3.0965625,-2.8705703125,-6.6198671875,-1.2238828125,-1.8621796875,-0.112628906249999,1.946875,-6.14685546875,-0.26853515625,1.09907421875,-2.1674453125,-9.5225078125,-5.9825234375,-0.404093749999999,-5.582484375,-10.82675,-6.574546875,-2.13830859375,-1.7345859375,-6.97490234375,0.562699218750001,-9.98967578125,-5.1445,-1.4529375
-3.45741015625,-1.8056484375,-2.94266796875,-5.32164453125,-1.4511640625,-1.00860546875,-2.5345625,-4.1855703125,-8.9778671875,-1.9558828125,-1.6101796875,-1.74562890625,-1.155125,-7.34785546875,-0.55853515625,1.29507421875,-1.5414453125,-11.5245078125,-6.1585234375,-0.0870937500000002,-4.872484375,-13.23975,-6.688546875,-1.45230859375,-0.992585937499999,-5.90790234375,1.33369921875,-8.95667578125,-3.8945,0.2210625
-4.49341015625,-1.3676484375,-2.36766796875,-6.09564453125,-2.6051640625,-0.30460546875,-1.5025625,-5.7475703125,-10.7278671875,-2.9258828125,-1.3311796875,-3.35762890625,-5.280125,-7.98885546875,-0.858535156249999,1.65407421875,-1.3974453125,-12.5565078125,-5.6705234375,0.67390625,-3.534484375,-14.54075,-5.935546875,0.13869140625,0.133414062500001,-4.77390234375,2.65569921875,-7.14467578125,-2.1555,2.3210625
-5.07641015625,-0.8166484375,-2.18466796875,-6.42564453125,-3.7031640625,0.40539453125,-0.0655625000000004,-7.3315703125,-11.2678671875,-3.6718828125,-0.8241796875,-4.46262890625,-9.724125,-7.76485546875,-0.74253515625,2.30707421875,-2.0094453125,-12.2815078125,-4.3715234375,2.07890625,-1.643484375,-14.31375,-4.204546875,2.55969140625,1.8034140625,-3.35090234375,4.70369921875,-4.53967578125,0.0965,4.8380625
-5.16941015625,-0.5316484375,-2.83466796875,-6.26664453125,-4.5821640625,0.79839453125,1.2974375,-8.8675703125,-10.4538671875,-4.0448828125,-0.3301796875,-5.09862890625,-13.429125,-6.72385546875,-0.24053515625,3.04307421875,-3.0884453125,-10.7605078125,-2.5395234375,3.89990625,0.407515625,-12.55975,-1.781546875,5.25169140625,3.8604140625,-1.55290234375,7.22169921875,-1.51067578125,2.5675,7.4910625
-4.93941015625,-0.7586484375,-4.27866796875,-5.88364453125,-5.2341640625,0.46239453125,1.9444375,-10.2115703125,-8.6098671875,-4.1658828125,-0.3481796875,-5.69762890625,-15.174125,-5.19785546875,0.248464843750001,3.41107421875,-3.9764453125,-8.3875078125,-0.742523437500001,5.55990625,2.046515625,-9.66175,0.758453125,7.39769140625,5.8364140625,0.44509765625,9.57369921875,1.33732421875,4.7495,9.7910625
-4.59641015625,-1.4206484375,-5.92866796875,-5.59164453125,-5.6521640625,-0.77760546875,1.3814375,-11.0165703125,-6.3498671875,-4.2488828125,-1.2841796875,-6.71162890625,-14.021125,-3.62585546875,0.24446484375,2.96607421875,-4.0704453125,-5.6955078125,0.4504765625,6.39290625,2.770515625,-6.22075,2.801453125,8.28669140625,7.1404140625,2.23509765625,11.01069921875,3.45532421875,6.1655,11.2500625
-4.25741015625,-2.1326484375,-6.91666796875,-5.49864453125,-5.7531640625,-2.67160546875,-0.5045625,-10.9175703125,-4.3068671875,-4.3988828125,-3.1701796875,-8.27662890625,-9.832125,-2.36885546875,-0.48753515625,1.51607421875,-3.1874453125,-3.1675078125,0.743476562499999,5.96890625,2.367515625,-2.87575,3.950453125,7.62369140625,7.3144140625,3.36309765625,11.03469921875,4.59332421875,6.5985,11.5940625
-3.89641015625,-2.3986484375,-6.54466796875,-5.45164453125,-5.4131640625,-4.60360546875,-3.3435625,-9.8725703125,-2.9078671875,-4.5178828125,-5.6021796875,-10.11062890625,-3.541125,-1.58985546875,-1.77453515625,-0.75992578125,-1.6834453125,-1.1315078125,0.237476562499999,4.28390625,0.975515625,-0.15175,4.152453125,5.63169140625,6.2094140625,3.53009765625,9.62769921875,4.87032421875,6.1795,10.8380625
-3.37341015625,-1.8796484375,-4.68066796875,-5.17864453125,-4.5361640625,-5.85660546875,-6.3745625,-8.2955703125,-2.2448671875,-4.3598828125,-7.8841796875,-11.68862890625,3.029875,-1.26085546875,-3.10553515625,-3.37792578125,-0.277445312499999,0.2564921875,-0.673523437500001,1.75090625,-1.038484375,1.62725,3.641453125,2.90969140625,3.9874140625,2.67309765625,7.22769921875,4.63632421875,5.2555,9.2200625
-2.50941015625,-0.5546484375,-1.85166796875,-4.47064453125,-3.0891640625,-5.91360546875,-8.6775625,-6.8455703125,-2.0858671875,-3.6978828125,-9.3071796875,-12.54762890625,7.820875,-1.24485546875,-3.88353515625,-5.73192578125,0.337554687500001,0.9714921875,-1.5405234375,-1.00609375,-3.272484375,2.36925,2.755453125,0.149691406250001,1.0094140625,0.92509765625,4.46769921875,4.22332421875,4.1425,7.0520625
-1.16441015625,1.3093515625,1.02633203125,-3.31564453125,-1.1151640625,-4.67460546875,-9.4925625,-6.1175703125,-1.9908671875,-2.4858828125,-9.4211796875,-12.49162890625,9.402875,-1.38985546875,-3.73953515625,-7.29792578125,-0.0884453124999993,1.0704921875,-2.1105234375,-3.41109375,-5.418484375,2.18025,1.740453125,-2.16130859375,-2.2985859375,-1.45990234375,1.85569921875,3.74632421875,2.9285,4.5650625
0.65858984375,3.3123515625,3.10233203125,-1.90564453125,1.2158359375,-2.49960546875,-8.5095625,-6.4215703125,-1.5248671875,-0.956882812499999,-8.2181796875,-11.61762890625,7.613875,-1.60085546875,-2.73553515625,-7.78792578125,-1.1614453125,0.6584921875,-2.4405234375,-5.13009375,-7.280484375,1.30425,0.666453124999999,-3.88130859375,-5.5195859375,-4.14390234375,-0.39030078125,3.07332421875,1.4775,1.8780625
2.72858984375,5.0523515625,3.95933203125,-0.55964453125,3.5188359375,-0.09660546875,-6.0345625,-7.6915703125,-0.4868671875,0.407117187500001,-6.1371796875,-10.18962890625,3.629875,-1.86985546875,-1.36053515625,-7.22192578125,-2.0064453125,-0.1275078125,-2.8175234375,-6.11109375,-8.721484375,0.0622500000000001,-0.519546875,-5.15030859375,-8.2575859375,-6.71690234375,-2.28030078125,2.00132421875,-0.3695,-0.9119375
4.58558984375,6.1933515625,3.68933203125,0.39535546875,5.1788359375,1.73239453125,-2.9085625,-9.4945703125,0.9351328125,1.0261171875,-3.8941796875,-8.49362890625,-0.622125,-2.25585546875,-0.29353515625,-5.89692578125,-1.7204453125,-1.1065078125,-3.5255234375,-6.49009375,-9.611484375,-1.18275,-1.850546875,-6.14830859375,-10.1375859375,-8.75690234375,-3.82330078125,0.51432421875,-2.5395,-3.5629375
5.70658984375,6.4933515625,2.68833203125,0.74935546875,5.5318359375,2.37939453125,-0.167562500000001,-11.1585703125,2.2261328125,0.4881171875,-2.2191796875,-6.75562890625,-3.410125,-2.80185546875,-0.0575351562499993,-4.25892578125,0.164554687500001,-2.0255078125,-4.5965234375,-6.42109375,-9.826484375,-2.08775,-3.192546875,-6.88030859375,-10.8355859375,-9.91690234375,-4.84330078125,-1.07367578125,-4.6015,-5.6369375
5.76158984375,5.8633515625,1.34033203125,0.48535546875,4.2228359375,1.66539453125,1.4004375,-12.0435703125,2.8321328125,-1.1818828125,-1.5891796875,-5.12262890625,-3.985125,-3.42585546875,-0.73253515625,-2.74092578125,3.4945546875,-2.5775078125,-5.7165234375,-5.95009375,-9.270484375,-2.42575,-4.208546875,-7.10130859375,-10.1635859375,-10.02190234375,-4.96030078125,-2.22367578125,-5.8965,-6.6399375
4.79158984375,4.4223515625,-0.16866796875,-0.18964453125,1.5348359375,-0.0916054687500001,1.5374375,-11.7855703125,2.5371328125,-3.4398828125,-2.0691796875,-3.68962890625,-2.780125,-3.89485546875,-1.91353515625,-1.62792578125,7.6025546875,-2.4845078125,-6.3585234375,-5.03209375,-7.932484375,-2.18075,-4.490546875,-6.48130859375,-8.1745859375,-9.14690234375,-3.79330078125,-2.47867578125,-5.8655,-6.2949375
3.19358984375,2.5173515625,-1.79666796875,-0.91664453125,-1.5551640625,-2.19260546875,0.502437499999999,-10.3705703125,1.6571328125,-5.4158828125,-3.3121796875,-2.53662890625,-0.917125,-3.92285546875,-2.91853515625,-1.01592578125,11.5955546875,-1.6455078125,-6.0665234375,-3.65909375,-5.931484375,-1.57775,-3.786546875,-4.85830859375,-5.2265859375,-7.61990234375,-1.24230078125,-1.75367578125,-4.3735,-4.7469375
1.51958984375,0.6793515625,-3.41166796875,-1.32564453125,-3.7301640625,-3.82460546875,-1.1385625,-8.0515703125,0.8951328125,-6.2808828125,-4.7001796875,-1.70962890625,0.574875,-3.32885546875,-3.11953515625,-0.802925781249999,14.5895546875,-0.2165078125,-4.7075234375,-1.95609375,-3.506484375,-0.97675,-2.164546875,-2.41130859375,-1.9205859375,-5.90290234375,2.34069921875,-0.39067578125,-1.7955,-2.5349375
0.24858984375,-0.5066484375,-4.62966796875,-1.17064453125,-3.9251640625,-4.36460546875,-2.7245625,-5.2415703125,0.9741328125,-5.5878828125,-5.5911796875,-1.14362890625,1.312875,-2.12685546875,-2.21353515625,-0.701925781249999,15.8565546875,1.4394921875,-2.5165234375,-0.16309375,-0.942484375,-0.67275,0.0234531249999996,0.389691406250001,1.0914140625,-4.39490234375,6.23469921875,1.04932421875,1.1765,-0.3599375
-0.40641015625,-0.6516484375,-4.95466796875,-0.42064453125,-1.8881640625,-3.62360546875,-3.6805625,-2.4235703125,2.2371328125,-3.4488828125,-5.5631796875,-0.59862890625,1.556875,-0.51885546875,-0.315535156249999,-0.305925781249999,14.9495546875,2.9244921875,0.0354765624999995,1.48690625,1.505515625,-0.74275,2.327453125,2.97869140625,3.3114140625,-3.28790234375,9.61469921875,2.10132421875,3.8645,1.2190625
-0.56741015625,0.1343515625,-4.20166796875,0.74035546875,1.6088359375,-1.95660546875,-3.7025625,-0.0865703124999999,4.4471328125,-0.5248828125,-4.5701796875,0.25337109375,1.793875,1.17314453125,2.11546484375,0.72207421875,11.9025546875,3.9614921875,2.4374765625,2.83890625,3.613515625,-1.03075,4.376453125,4.90169140625,4.5174140625,-2.58990234375,11.82569921875,2.59132421875,5.8365,1.9500625
-0.59041015625,1.1523515625,-2.83966796875,1.96335546875,5.0308359375,-0.17260546875,-2.9175625,1.3624296875,6.8541328125,2.1881171875,-2.9711796875,1.60537109375,2.249875,2.58714453125,4.43546484375,2.43307421875,7.4455546875,4.4554921875,4.2784765625,3.80690625,5.147515625,-1.30075,5.949453125,5.91869140625,4.7494140625,-2.24590234375,12.55069921875,2.60832421875,6.9495,1.8900625
-0.82141015625,1.4303515625,-1.89666796875,2.85335546875,6.7548359375,0.79439453125,-1.8405625,1.6924296875,8.5281328125,3.7271171875,-1.3801796875,3.30937109375,2.682875,3.42114453125,6.01946484375,4.49107421875,3.0075546875,4.4564921875,5.3194765625,4.34890625,5.892515625,-1.41775,6.951453125,6.01769140625,4.2474140625,-2.18490234375,11.87169921875,2.34732421875,7.2825,1.3030625
-1.35541015625,0.3143515625,-2.36166796875,3.11835546875,5.8498359375,0.32439453125,-1.0935625,0.9654296875,8.7791328125,3.5691171875,-0.3911796875,4.84637109375,2.528875,3.52814453125,6.45546484375,6.30507421875,0.281554687500002,4.0784921875,5.5154765625,4.46890625,5.751515625,-1.43275,7.354453125,5.36969140625,3.3704140625,-2.27890234375,10.21769921875,1.96132421875,7.0565,0.5390625
-2.00741015625,-2.0816484375,-4.51166796875,2.66835546875,2.5668359375,-1.56060546875,-1.0365625,-0.4165703125,7.4881328125,1.8441171875,-0.3221796875,5.52937109375,1.284875,2.95414453125,5.66246484375,7.30107421875,0.426554687500001,3.4144921875,4.9604765625,4.22590625,4.843515625,-1.53575,7.135453125,4.24869140625,2.5054140625,-2.31590234375,8.21269921875,1.49932421875,6.5555,-0.0569375
-2.51041015625,-4.9116484375,-7.64466796875,1.62035546875,-1.7581640625,-4.18960546875,-1.5815625,-1.8545703125,5.1701328125,-0.7618828125,-1.1001796875,4.82837109375,-1.116125,1.87714453125,3.89246484375,7.16607421875,3.3395546875,2.4884921875,3.8074765625,3.68990625,3.477515625,-1.91575,6.243453125,2.91869140625,1.9374140625,-2.10190234375,6.44369921875,0.92432421875,6.0355,-0.2479375
-2.73241015625,-7.0386484375,-10.39366796875,0.23335546875,-5.3221640625,-6.57060546875,-2.3065625,-2.9095703125,2.7501328125,-3.3208828125,-2.3621796875,2.63937109375,-4.092125,0.54314453125,1.61446484375,5.93207421875,7.5415546875,1.2974921875,2.2054765625,2.88790625,2.025515625,-2.61575,4.644453125,1.56369140625,1.7544140625,-1.60090234375,5.26269921875,0.17732421875,5.6415,0.0260625000000001
-2.74541015625,-7.5886484375,-11.41966796875,-1.16064453125,-6.6841640625,-7.84860546875,-2.7585625,-3.6155703125,1.1301328125,-5.0248828125,-3.6851796875,-0.65362890625,-6.516125,-0.77985546875,-0.642535156249999,3.89207421875,10.8525546875,-0.0955078125000001,0.319476562499999,1.79190625,0.744515625,-3.46275,2.428453125,0.28169140625,1.8354140625,-1.00090234375,4.70069921875,-0.74967578125,5.3725,0.6250625
-2.70841015625,-6.3426484375,-10.08566796875,-2.18464453125,-5.3641640625,-7.64860546875,-2.7675625,-4.4365703125,0.7801328125,-5.4368828125,-4.7621796875,-4.34262890625,-7.154125,-1.83985546875,-2.40753515625,1.43007421875,11.5025546875,-1.5105078125,-1.6055234375,0.36890625,-0.326484375,-4.13575,-0.111546875,-0.84930859375,1.9124140625,-0.64190234375,4.52769921875,-1.75467578125,5.1115,1.2480625
-2.68141015625,-3.7916484375,-6.77666796875,-2.45464453125,-1.9651640625,-6.14460546875,-2.5635625,-5.8625703125,1.5761328125,-4.5588828125,-5.4531796875,-7.68462890625,-5.303125,-2.43785546875,-3.33153515625,-1.11792578125,9.0405546875,-2.6915078125,-3.2215234375,-1.32609375,-1.355484375,-4.34075,-2.509546875,-1.72830859375,1.6834140625,-0.85290234375,4.38869921875,-2.63067578125,4.7095,1.5540625
-2.50541015625,-0.8626484375,-2.70266796875,-1.67264453125,2.2088359375,-3.90660546875,-2.6425625,-7.9925703125,2.9831328125,-2.7408828125,-5.7231796875,-10.13762890625,-1.282125,-2.46085546875,-3.21853515625,-3.50892578125,4.5525546875,-3.4025078125,-4.1505234375,-3.10009375,-2.594484375,-3.98075,-4.283546875,-2.25830859375,0.930414062500001,-1.78590234375,3.96169921875,-3.15367578125,4.0755,1.2960625
-1.84741015625,1.5143515625,0.66133203125,0.19635546875,5.7508359375,-1.63560546875,-3.4525625,-10.4175703125,4.4251328125,-0.4928828125,-5.6001796875,-11.44262890625,3.569875,-1.89585546875,-2.07153515625,-5.56592578125,0.118554687500001,-3.5085078125,-4.1405234375,-4.64809375,-4.190484375,-3.21475,-5.118546875,-2.41930859375,-0.4005859375,-3.31890234375,3.06469921875,-3.21867578125,3.2175,0.4130625
-0.43341015625,2.7533515625,2.21033203125,2.77235546875,7.6778359375,0.0743945312499998,-5.0685625,-12.4365703125,5.5601328125,1.6491171875,-5.1601796875,-11.59762890625,7.469875,-0.84685546875,-0.14953515625,-7.12592578125,-2.2034453125,-3.0175078125,-3.2285234375,-5.66209375,-6.038484375,-2.37875,-5.002546875,-2.35730859375,-2.1635859375,-5.08790234375,1.66869921875,-2.95967578125,2.1935,-0.9709375
1.66858984375,2.7353515625,1.64133203125,5.28035546875,7.6808359375,0.90039453125,-7.0495625,-13.3715703125,6.3011328125,3.2011171875,-4.5101796875,-10.76362890625,9.037875,0.43314453125,2.03946484375,-7.99292578125,-1.3614453125,-2.0755078125,-1.7885234375,-5.95109375,-7.752484375,-1.81375,-4.241546875,-2.36130859375,-4.0275859375,-6.62490234375,-0.15130078125,-2.73167578125,1.0445,-2.6089375
3.92858984375,1.7523515625,-0.46266796875,6.78935546875,6.0968359375,0.85539453125,-8.5505625,-12.8275703125,6.6741328125,3.8081171875,-3.7511796875,-9.16962890625,7.935875,1.56714453125,3.85846484375,-7.94692578125,2.2315546875,-0.9385078125,-0.417523437500001,-5.49909375,-8.770484375,-1.72275,-3.333546875,-2.73830859375,-5.5285859375,-7.50890234375,-2.25630078125,-2.94867578125,-0.2365,-4.1839375
5.51458984375,0.3343515625,-2.91966796875,6.60535546875,3.6898359375,0.22039453125,-8.7035625,-10.8385703125,6.6751328125,3.3251171875,-2.9631796875,-7.05662890625,4.954875,2.14714453125,4.74446484375,-6.81592578125,6.9605546875,0.0984921875,0.304476562499999,-4.45509375,-8.585484375,-2.12075,-2.758546875,-3.62430859375,-6.1845859375,-7.46890234375,-4.46030078125,-3.86667578125,-1.6575,-5.3629375
5.65258984375,-0.9986484375,-4.52766796875,4.60335546875,1.3188359375,-0.63460546875,-7.0855625,-7.8775703125,6.2451328125,1.8681171875,-2.2191796875,-4.67262890625,1.528875,1.87414453125,4.38746484375,-4.63092578125,10.8295546875,0.7534921875,0.0434765624999995,-3.08909375,-7.021484375,-2.89375,-2.817546875,-4.89230859375,-5.6845859375,-6.45790234375,-6.54130078125,-5.46267578125,-3.1845,-5.8919375
4.01458984375,-1.9816484375,-4.68066796875,1.31235546875,-0.4051640625,-1.44260546875,-4.0455625,-4.7155703125,5.3371328125,-0.2378828125,-1.6131796875,-2.33162890625,-0.981125,0.65514453125,2.83446484375,-1.74792578125,12.4045546875,0.8074921875,-1.1705234375,-1.74609375,-4.398484375,-3.90175,-3.587546875,-6.19930859375,-4.0775859375,-4.71290234375,-8.29630078125,-7.45467578125,-4.7285,-5.7089375
0.96358984375,-2.6766484375,-3.64066796875,-2.29464453125,-1.3611640625,-2.11560546875,-0.6295625,-2.1685703125,4.0181328125,-2.5528828125,-1.2271796875,-0.426628906249999,-1.810125,-1.33485546875,0.503464843750001,1.20307421875,11.4305546875,0.1594921875,-2.9635234375,-0.75009375,-1.463484375,-5.02475,-4.943546875,-7.15130859375,-1.8135859375,-2.73490234375,-9.58230078125,-9.43767578125,-6.1725,-5.0229375
-2.47241015625,-3.2766484375,-2.27766796875,-5.20664453125,-1.8731640625,-2.65960546875,1.9294375,-0.8035703125,2.5311328125,-4.6018828125,-1.0661796875,0.698371093750001,-0.911125,-3.65685546875,-1.89653515625,3.55407421875,8.8665546875,-1.1075078125,-4.7385234375,-0.27109375,0.924515625,-6.14575,-6.589546875,-7.45230859375,0.4274140625,-1.11590234375,-10.34330078125,-11.03867578125,-7.4055,-4.2759375
-4.94341015625,-3.7866484375,-1.41766796875,-6.74564453125,-2.3531640625,-2.98660546875,2.8894375,-0.6985703125,1.2851328125,-5.8958828125,-0.9841796875,0.96937109375,1.208875,-5.66085546875,-3.54253515625,4.92007421875,6.3485546875,-2.6885078125,-5.8535234375,-0.22109375,2.196515625,-7.10275,-8.105546875,-6.99430859375,2.0394140625,-0.25290234375,-10.60830078125,-12.02967578125,-8.3405,-3.9619375
-5.32841015625,-3.8456484375,-1.23766796875,-6.71264453125,-2.8631640625,-2.81560546875,2.3924375,-1.3205703125,0.7691328125,-6.0028828125,-0.6761796875,0.72937109375,3.737875,-6.65285546875,-3.74953515625,5.36407421875,5.3745546875,-4.0995078125,-5.8325234375,-0.279093749999999,2.316515625,-7.68075,-9.021546875,-5.86830859375,2.7334140625,-0.12590234375,-10.48730078125,-12.33767578125,-8.9045,-4.3819375
-3.24541015625,-2.8706484375,-1.14566796875,-5.30864453125,-2.9571640625,-1.77060546875,1.3154375,-1.7075703125,1.3481328125,-4.7008828125,0.1968203125,0.61137109375,5.823875,-6.15385546875,-2.24653515625,5.28707421875,6.5905546875,-4.8205078125,-4.5405234375,-0.0640937499999996,1.723515625,-7.67175,-8.966546875,-4.33930859375,2.5994140625,-0.30490234375,-10.13830078125,-11.98467578125,-9.0235,-5.4669375
0.74458984375,-0.4746484375,-0.25066796875,-2.98264453125,-2.0131640625,0.30039453125,0.665437499999999,-0.9675703125,3.0151328125,-2.1748828125,1.7578203125,1.14537109375,6.878875,-4.15685546875,0.618464843750001,5.11207421875,9.5355546875,-4.5105078125,-2.2875234375,0.604906250000001,1.007515625,-6.96875,-7.830546875,-2.81730859375,1.9634140625,-0.19990234375,-9.71130078125,-11.01667578125,-8.6305,-6.7939375
5.33758984375,3.1193515625,1.91533203125,-0.31764453125,0.1848359375,3.04039453125,0.9374375,1.1514296875,5.2471328125,0.885117187500001,3.6678203125,2.37237109375,6.848875,-1.23585546875,3.88446484375,4.95507421875,12.9095546875,-3.1845078125,0.204476562499999,1.53190625,0.545515625,-5.62475,-5.854546875,-1.79230859375,1.1504140625,0.58409765625,-9.28530078125,-9.48667578125,-7.6935,-7.7929375
8.98458984375,6.9723515625,4.96133203125,2.03835546875,3.0988359375,5.56639453125,1.8704375,4.0884296875,7.1301328125,3.4301171875,5.1448203125,3.73537109375,6.242875,1.59614453125,6.24846484375,4.53807421875,15.2235546875,-1.2485078125,2.0124765625,2.15690625,0.312515625000001,-3.84475,-3.588546875,-1.72230859375,0.308414062500001,1.99809765625,-8.85930078125,-7.47667578125,-6.2775,-8.0139375
10.48658984375,9.7693515625,7.79733203125,3.47335546875,5.6318359375,6.84839453125,2.7364375,6.8414296875,7.7771328125,4.4381171875,5.3208203125,4.40237109375,5.824875,3.27814453125,6.58046484375,3.43007421875,15.5165546875,0.6624921875,2.3704765625,1.83290625,0.00151562499999969,-1.89475,-1.680546875,-2.84630859375,-0.593585937499999,3.55409765625,-8.37930078125,-5.11667578125,-4.5565,-7.2929375
9.42358984375,10.4513515625,9.26233203125,3.56035546875,6.7538359375,6.25939453125,2.9264375,8.5614296875,6.7851328125,3.4011171875,3.7628203125,3.82737109375,6.092875,3.18314453125,4.44346484375,1.46407421875,13.8065546875,1.9474921875,1.0214765625,0.21490625,-0.650484375,-0.0187499999999999,-0.589546875,-4.99630859375,-1.5975859375,4.59909765625,-7.76930078125,-2.58667578125,-2.7715,-5.7779375
6.27158984375,8.7363515625,8.73433203125,2.23335546875,6.0818359375,3.93939453125,2.3834375,8.9064296875,4.4521328125,0.6261171875,0.8028203125,2.16937109375,6.888875,1.42214453125,0.35146484375,-0.95892578125,11.0645546875,2.2864921875,-1.6155234375,-2.43709375,-1.548484375,1.59625,-0.371546875,-7.55130859375,-2.5535859375,4.71709765625,-6.93930078125,-0.11367578125,-1.1385,-3.8269375
2.14658984375,5.2113515625,6.36133203125,-0.13764453125,4.0188359375,0.74339453125,1.5634375,8.0414296875,1.6211328125,-2.8658828125,-2.5561796875,0.26937109375,7.425875,-1.20785546875,-4.41253515625,-2.95392578125,8.7265546875,1.7304921875,-4.6075234375,-5.27709375,-2.175484375,2.81625,-0.685546875,-9.61530859375,-3.0615859375,3.99409765625,-5.79030078125,2.04132421875,0.2335,-1.8479375
-1.65741015625,0.9913515625,2.85533203125,-2.81764453125,1.4288359375,-2.18360546875,1.0064375,6.4144296875,-0.7368671875,-5.8088828125,-5.1041796875,-0.83462890625,6.784875,-3.63785546875,-8.32353515625,-3.61792578125,8.0015546875,0.6124921875,-6.9255234375,-7.23609375,-1.877484375,3.55225,-1.032546875,-10.38130859375,-2.6615859375,2.96909765625,-4.27030078125,3.62932421875,1.3435,-0.1689375
-4.11541015625,-2.7706484375,-0.86566796875,-4.96164453125,-0.8351640625,-3.90460546875,0.9344375,4.5384296875,-1.9528671875,-7.2398828125,-5.9821796875,-0.52662890625,4.550875,-5.03985546875,-10.21453515625,-2.58092578125,9.3295546875,-0.6395078125,-7.8835234375,-7.54109375,-0.321484375,3.76825,-1.058546875,-9.50530859375,-1.1545859375,2.30009765625,-2.44630078125,4.47732421875,2.2435,1.0290625
-4.73141015625,-5.2116484375,-3.93866796875,-5.94564453125,-2.2121640625,-3.99960546875,1.2084375,2.8444296875,-1.8888671875,-6.8128828125,-5.0101796875,1.03137109375,1.173875,-5.13885546875,-9.64453515625,-0.271925781249999,12.2285546875,-1.6895078125,-7.3545234375,-6.06209375,2.160515625,3.50725,-0.723546875,-7.27030859375,1.1654140625,2.34909765625,-0.56330078125,4.55532421875,2.9535,1.6750625
-3.59241015625,-5.8966484375,-5.67166796875,-5.61864453125,-2.4651640625,-2.58260546875,1.5584375,1.6354296875,-0.904867187499999,-4.7868828125,-2.6491796875,2.98237109375,-2.168125,-4.19385546875,-6.90853515625,2.28407421875,15.5135546875,-2.3725078125,-5.6915234375,-3.32809375,4.601515625,2.88325,-0.251546875,-4.43630859375,3.5324140625,2.92209765625,0.99069921875,3.98032421875,3.3985,1.7120625
-1.24541015625,-4.8266484375,-5.64166796875,-4.32364453125,-1.6001640625,-0.11960546875,1.8284375,1.1134296875,0.3911328125,-1.7768828125,0.327820312499999,4.23037109375,-4.108125,-2.72685546875,-2.76653515625,4.00907421875,17.7205546875,-2.6525078125,-3.4445234375,-0.21209375,5.794515625,2.05125,0.0754531250000001,-1.85230859375,4.9984140625,3.29309765625,1.79969921875,2.96132421875,3.3975,1.0170625
1.53958984375,-2.3916484375,-3.83066796875,-2.67864453125,0.2048359375,2.82039453125,2.0534375,1.3684296875,1.4741328125,1.5481171875,3.2528203125,4.02237109375,-3.728125,-1.18285546875,1.93246484375,4.33607421875,17.5985546875,-2.5135078125,-1.0605234375,2.49690625,4.867515625,1.18125,0.153453125,-0.0493085937500002,4.8684140625,2.53809765625,1.61469921875,1.71632421875,2.7385,-0.5599375
4.04458984375,0.7513515625,-0.69566796875,-1.24664453125,2.6888359375,5.76739453125,2.4194375,2.2944296875,2.1851328125,4.7281171875,5.8138203125,2.34637109375,-0.985125,0.31714453125,6.53646484375,3.48007421875,14.5395546875,-1.8565078125,1.2984765625,4.42090625,1.742515625,0.46925,0.187453124999999,0.972691406249999,3.0654140625,0.0400976562499995,0.532699218749999,0.44932421875,1.3525,-3.0289375
5.80058984375,3.8483515625,2.91533203125,-0.28364453125,5.6148359375,8.44439453125,3.1364375,3.5384296875,2.8301328125,7.6081171875,8.0448203125,-0.0546289062499996,3.235875,1.99314453125,10.66246484375,2.27407421875,8.8515546875,-0.5035078125,3.7344765625,5.65390625,-2.786484375,0.15825,0.631453125,1.64969140625,0.220414062500001,-4.10490234375,-0.95530078125,-0.61367578125,-0.5225,-6.0709375
6.63858984375,6.2213515625,6.00533203125,0.29535546875,8.8048359375,10.70739453125,4.2784375,4.5784296875,4.0221328125,10.2171171875,10.0798203125,-2.11762890625,7.471875,4.18814453125,14.06746484375,1.65407421875,1.7045546875,1.6764921875,6.3794765625,6.52690625,-7.379484375,0.50425,1.924453125,2.49469140625,-2.6125859375,-9.03590234375,-2.15630078125,-1.19367578125,-2.3325,-8.9969375
6.62958984375,7.3853515625,7.71133203125,0.74935546875,11.9928359375,12.38439453125,5.6224375,4.9014296875,6.2661328125,12.4801171875,11.8548203125,-3.08762890625,10.301875,7.00014453125,16.43746484375,2.09607421875,-5.2474453125,4.5774921875,9.1084765625,7.24790625,-10.742484375,1.66625,4.170453125,3.70569140625,-4.4615859375,-13.45590234375,-2.49130078125,-0.99867578125,-3.3975,-10.9469375
6.00058984375,7.1343515625,7.53333203125,1.26735546875,14.5988359375,13.13339453125,6.6364375,4.1444296875,9.5021328125,13.9981171875,12.9508203125,-2.93762890625,10.975875,10.03114453125,17.28646484375,3.32907421875,-10.4474453125,7.7684921875,11.3874765625,7.65890625,-12.145484375,3.57825,6.954453125,4.97669140625,-4.8805859375,-16.14890234375,-1.76230078125,0.14532421875,-3.2145,-11.2479375
5.03458984375,5.5643515625,5.42133203125,1.79435546875,15.6988359375,12.48039453125,6.6604375,2.1924296875,12.9181328125,14.1081171875,12.7028203125,-2.32562890625,9.737875,12.42214453125,16.09646484375,4.48607421875,-12.9364453125,10.5704921875,12.4174765625,7.29790625,-11.609484375,5.89725,9.449453125,5.65469140625,-4.0625859375,-16.41690234375,-0.190300781249999,2.15332421875,-1.6995,-9.7199375
3.94058984375,2.9763515625,1.71733203125,2.03035546875,14.3718359375,10.03239453125,5.1714375,-0.7255703125,15.1811328125,12.1961171875,10.5428203125,-2.17062890625,7.610875,13.17914453125,12.62346484375,4.59507421875,-12.5474453125,12.2794921875,11.4924765625,5.70190625,-9.744484375,8.07225,10.746453125,5.09669140625,-2.6295859375,-14.29290234375,1.72169921875,4.60632421875,0.7495,-6.7909375
2.72658984375,-0.2736484375,-2.99466796875,1.58335546875,10.2528359375,5.74839453125,1.9934375,-3.9875703125,15.0271328125,8.0781171875,6.3688203125,-3.14762890625,5.769875,11.59214453125,7.15846484375,3.09807421875,-9.7724453125,12.3894921875,8.3734765625,2.73590625,-7.397484375,9.49325,10.228453125,3.02169140625,-1.2805859375,-10.51590234375,3.37969921875,6.82332421875,3.3755,-3.3619375
1.21258984375,-3.8456484375,-7.98266796875,0.18535546875,3.9148359375,0.10739453125,-2.5905625,-6.7535703125,11.8781328125,2.2181171875,0.7358203125,-5.37162890625,4.885875,7.57514453125,0.58746484375,0.132074218750001,-5.4834453125,10.7404921875,3.4544765625,-1.24309375,-5.315484375,9.68425,7.810453125,-0.32830859375,-0.5115859375,-6.30490234375,4.28069921875,8.09132421875,5.3415,-0.4879375
-0.80041015625,-7.3336484375,-12.38866796875,-2.14164453125,-3.2021640625,-5.91060546875,-7.8275625,-8.3215703125,6.1781328125,-4.3148828125,-5.2421796875,-8.35262890625,4.902875,1.75814453125,-5.80753515625,-3.50292578125,-0.672445312499999,7.5694921875,-2.3035234375,-5.42009375,-3.934484375,8.48925,3.981453125,-4.24430859375,-0.4795859375,-2.93990234375,4.17369921875,7.97932421875,6.0775,0.9940625
-3.27941015625,-10.1906484375,-15.31866796875,-5.01264453125,-9.2921640625,-11.04460546875,-12.6205625,-8.4155703125,-0.7118671875,-10.1458828125,-10.2021796875,-11.18862890625,5.308875,-4.66585546875,-10.67253515625,-6.64092578125,3.7185546875,3.4474921875,-7.6565234375,-8.74109375,-3.286484375,6.18825,-0.354546875,-7.74830859375,-0.994585937499999,-1.26790234375,3.18369921875,6.57832421875,5.5385,0.7870625
-5.84341015625,-11.8396484375,-16.10666796875,-7.76464453125,-12.8381640625,-14.12260546875,-15.8265625,-7.2195703125,-6.9968671875,-14.0038828125,-12.9451796875,-12.91462890625,5.622875,-10.30385546875,-12.93653515625,-8.16192578125,6.9675546875,-0.8775078125,-11.4335234375,-10.22709375,-3.028484375,3.42525,-4.176546875,-9.88330859375,-1.5985859375,-1.34190234375,1.80069921875,4.52732421875,4.2325,-0.7219375
-7.83341015625,-11.9126484375,-14.63666796875,-9.65064453125,-13.0961640625,-14.42660546875,-16.6435625,-5.2225703125,-11.0618671875,-15.0638828125,-12.7871796875,-12.84662890625,5.686875,-13.96985546875,-12.06353515625,-7.37092578125,8.7045546875,-4.6875078125,-12.8685234375,-9.28409375,-2.588484375,0.98125,-6.686546875,-9.99430859375,-1.7195859375,-2.39390234375,0.69869921875,2.76032421875,2.9795,-2.6059375
-8.54141015625,-10.4086484375,-11.42166796875,-10.12164453125,-10.1991640625,-11.90260546875,-14.8805625,-3.0445703125,-11.9708671875,-13.0998828125,-9.7361796875,-10.77262890625,5.599875,-14.97385546875,-8.17153515625,-4.19892578125,8.9785546875,-7.4565078125,-11.7845234375,-5.89409375,-1.401484375,-0.54175,-7.519546875,-7.92130859375,-0.869585937499999,-3.19890234375,0.452699218749999,2.09132421875,2.5075,-3.7809375
-7.50241015625,-7.6446484375,-7.35166796875,-9.05764453125,-4.9441640625,-7.11260546875,-10.9545625,-1.2635703125,-9.6878671875,-8.4368828125,-4.4431796875,-6.91462890625,5.440875,-13.21285546875,-1.98153515625,0.825074218750001,8.1965546875,-8.9155078125,-8.5725234375,-0.62509375,0.867515625,-0.92575,-6.768546875,-4.03030859375,1.1864140625,-2.65090234375,1.30169921875,2.84332421875,3.1105,-3.4719375
-4.74141015625,-4.1416484375,-3.30566796875,-6.83964453125,1.5518359375,-1.02560546875,-5.6735625,-0.2225703125,-5.0128671875,-1.8628828125,2.0478203125,-1.78162890625,5.060875,-9.13385546875,5.35146484375,6.77607421875,6.9695546875,-9.0305078125,-4.0315234375,5.52190625,4.177515625,-0.37075,-4.867546875,0.911691406249999,4.3274140625,-0.26790234375,3.06569921875,4.69332421875,4.5155,-1.5229375
-0.86841015625,-0.5306484375,0.0973320312499997,-4.18864453125,8.0748359375,5.22839453125,0.0364374999999999,0.1044296875,0.6891328125,5.4591171875,8.5728203125,3.95237109375,4.142875,-3.62485546875,12.45746484375,12.56307421875,5.9315546875,-7.9685078125,0.8574765625,11.34090625,8.095515625,0.66525,-2.411546875,5.92969140625,8.0654140625,3.60409765625,5.21469921875,6.80532421875,6.0285,1.5760625
3.11158984375,2.5283515625,2.54633203125,-1.85864453125,13.4088359375,10.53439453125,5.3204375,0.0724296875000001,5.8581328125,12.1071171875,14.0328203125,9.49337109375,2.504875,2.13414453125,17.96446484375,17.12507421875,5.5755546875,-6.0735078125,5.1174765625,15.66590625,11.903515625,1.67425,-0.0175468749999999,10.02469140625,11.6294140625,7.99109765625,7.02769921875,8.18632421875,6.8525,4.9170625
6.18258984375,4.4973515625,3.98333203125,-0.33264453125,16.4618359375,13.95839453125,9.4744375,0.1554296875,9.1361328125,16.6631171875,17.5218203125,13.98237109375,0.436875,6.90314453125,20.75446484375,19.59607421875,6.1625546875,-3.8195078125,7.9424765625,17.60490625,14.802515625,2.30025,1.775453125,12.35069140625,14.1634140625,11.75409765625,7.79769921875,8.08832421875,6.4515,7.5330625
7.69958984375,5.1193515625,4.53033203125,0.30535546875,16.5468359375,14.95139453125,11.9734375,0.7344296875,9.7161328125,18.1241171875,18.4828203125,16.66537109375,-1.226125,9.69114453125,20.25746484375,19.48007421875,7.6455546875,-1.7075078125,8.8544765625,16.76390625,16.166515625,2.42725,2.609453125,12.38669140625,14.9704140625,14.05909765625,7.03369921875,6.30832421875,4.7515,8.7380625
7.56758984375,4.4693515625,4.38333203125,0.27735546875,13.6928359375,13.53439453125,12.5084375,1.9514296875,7.5501328125,16.2821171875,16.8948203125,17.12937109375,-1.475125,10.05914453125,16.70746484375,16.83307421875,9.6115546875,-0.1155078125,7.8414765625,13.39490625,15.746515625,2.17325,2.394453125,10.09869140625,13.7684140625,14.63009765625,4.64269921875,3.25832421875,2.1395,8.3210625
6.17658984375,2.8873515625,3.69833203125,-0.0956445312500001,8.7608359375,10.32439453125,11.0704375,3.6484296875,3.3711328125,11.8791171875,13.3458203125,15.47937109375,0.216875,8.28514453125,11.17346484375,12.32907421875,11.3105546875,0.8334921875,5.4104765625,8.39890625,13.761515625,1.77925,1.376453125,6.01669140625,10.8224140625,13.72309765625,1.02069921875,-0.19067578125,-0.7075,6.5440625
4.18258984375,0.8703515625,2.57533203125,-0.52964453125,3.2248359375,6.33339453125,8.0314375,5.4024296875,-1.5038671875,6.3891171875,8.8848203125,12.31537109375,3.413875,5.28314453125,5.26246484375,7.13207421875,11.8695546875,1.2904921875,2.4584765625,3.10590625,10.814515625,1.48025,0.0754531250000001,1.14769140625,6.8984140625,11.89409765625,-3.00830078125,-3.04767578125,-3.0745,3.9880625
2.24758984375,-1.0476484375,1.13633203125,-0.80264453125,-1.3421640625,2.61939453125,4.1264375,6.6964296875,-5.5718671875,1.4751171875,4.6638203125,8.53337109375,6.829875,2.25914453125,0.56246484375,2.53307421875,10.6765546875,1.5844921875,-0.0225234375000012,-1.12009375,7.671515625,1.41825,-0.893546875,-3.30530859375,3.0184140625,9.71109765625,-6.43430078125,-4.55167578125,-4.4075,1.3270625
0.80458984375,-2.4356484375,-0.40166796875,-0.75464453125,-3.8601640625,-0.0776054687499999,0.271437499999999,7.1364296875,-7.6518671875,-1.6628828125,1.5598203125,5.02637109375,9.007875,0.22914453125,-1.91153515625,-0.478925781249999,7.7395546875,2.0274921875,-1.2975234375,-3.32609375,4.988515625,1.64825,-1.067546875,-6.28830859375,0.108414062500001,7.56809765625,-8.39230078125,-4.38967578125,-4.4325,-0.8539375
-0.0644101562500001,-3.0966484375,-1.72866796875,-0.34364453125,-4.1271640625,-1.52660546875,-2.7085625,6.5884296875,-7.3108671875,-2.6958828125,-0.0591796875000004,2.46237109375,9.148875,-0.35285546875,-2.02253515625,-1.51992578125,3.7935546875,2.7574921875,-1.1225234375,-3.24609375,3.141515625,2.19925,-0.289546875,-7.20030859375,-1.2795859375,5.67109765625,-8.41030078125,-2.70867578125,-3.1415,-2.1469375
-0.60041015625,-3.1186484375,-2.55566796875,0.27035546875,-2.8091640625,-1.98360546875,-4.3305625,5.1654296875,-4.9908671875,-2.1558828125,-0.3621796875,1.15737109375,7.552875,0.30814453125,-0.453535156249999,-0.86592578125,0.0285546875000016,3.6794921875,0.233476562499999,-1.32209375,2.178515625,3.10025,1.270453125,-6.03230859375,-1.1015859375,4.13009765625,-6.50530078125,0.03032421875,-0.7385,-2.3669375
-1.21041015625,-2.8286484375,-2.77666796875,0.73735546875,-1.0431640625,-2.00060546875,-4.5965625,3.1654296875,-1.7448671875,-1.0818828125,0.0998203124999995,1.06637109375,5.372875,1.54114453125,1.62546484375,0.71907421875,-2.4754453125,4.5194921875,2.1334765625,1.48790625,1.887515625,4.32525,3.196453125,-3.34930859375,0.220414062500001,3.03609765625,-3.14130078125,3.21132421875,2.3835,-1.5819375
-2.26841015625,-2.6916484375,-2.58466796875,0.66135546875,0.1058359375,-2.18560546875,-3.9785625,1.0374296875,1.2621328125,-0.534882812499999,0.6308203125,1.82937109375,3.851875,2.54014453125,2.99646484375,2.27607421875,-3.2884453125,4.9394921875,3.7924765625,4.00690625,1.897515625,5.69325,4.946453125,-0.15430859375,1.9364140625,2.42409765625,0.866699218750001,6.17632421875,5.6225,-0.1399375
-3.94441015625,-3.1296484375,-2.41266796875,-0.17064453125,0.0478359374999999,-2.98560546875,-3.2185625,-0.6865703125,3.2281328125,-1.2058828125,0.620820312499999,2.88837109375,3.537875,2.69714453125,2.77346484375,2.95407421875,-2.8354453125,4.6754921875,4.5124765625,5.18390625,1.791515625,6.84725,5.993453125,2.38469140625,3.2044140625,2.20809765625,4.50469921875,8.29832421875,8.2205,1.3730625
-6.09741015625,-4.3166484375,-2.68466796875,-1.61564453125,-1.2401640625,-4.56260546875,-2.9955625,-1.5945703125,3.9301328125,-3.2168828125,-0.2871796875,3.65537109375,4.000875,1.82614453125,0.64846484375,2.27007421875,-2.0924453125,3.6524921875,3.8814765625,4.39690625,1.238515625,7.34925,5.981453125,3.28169140625,3.3624140625,2.17109765625,6.80969921875,9.08132421875,9.4525,2.2940625
-8.29841015625,-6.0566484375,-3.55266796875,-3.17564453125,-3.3921640625,-6.76860546875,-3.6505625,-1.6345703125,3.6191328125,-6.1558828125,-2.1351796875,3.69237109375,4.225875,0.17214453125,-3.07053515625,0.239074218750001,-1.9724453125,2.0134921875,1.8884765625,1.65490625,0.101515625,6.86725,4.854453125,2.08469140625,2.1474140625,2.06409765625,7.15269921875,8.28432421875,8.9035,2.1050625
-10.01141015625,-7.8846484375,-4.82866796875,-4.20964453125,-5.9321640625,-9.22060546875,-5.1445625,-1.1705703125,2.7291328125,-9.3188828125,-4.6531796875,2.82437109375,3.398875,-1.75685546875,-7.58853515625,-2.64392578125,-2.7694453125,0.0724921875,-1.0875234375,-2.41309375,-1.505484375,5.34525,2.882453125,-0.94730859375,-0.2165859375,1.73509765625,5.46769921875,6.03532421875,6.6675,0.6700625
-10.84141015625,-9.3346484375,-6.14066796875,-4.26264453125,-8.4381640625,-11.44160546875,-7.1965625,-0.7595703125,1.6031328125,-11.9998828125,-7.3351796875,1.18537109375,1.526875,-3.43685546875,-11.87853515625,-5.58292578125,-4.0204453125,-1.7925078125,-4.3825234375,-6.76709375,-3.249484375,3.07125,0.575453125,-4.90730859375,-3.1245859375,1.20909765625,2.31769921875,2.85032421875,3.3725,-1.6639375
-10.70541015625,-10.1596484375,-7.15766796875,-3.33864453125,-10.5451640625,-12.99860546875,-9.4235625,-0.8005703125,0.3771328125,-13.6988828125,-9.5691796875,-0.790628906249999,-0.510125,-4.50885546875,-14.98053515625,-7.75392578125,-4.8524453125,-3.2315078125,-7.2315234375,-10.29909375,-4.703484375,0.61325,-1.473546875,-8.57330859375,-5.8215859375,0.67309765625,-1.27130078125,-0.47867578125,-0.0255000000000001,-4.1529375
-9.84041015625,-10.3746484375,-7.73166796875,-1.92564453125,-11.9061640625,-13.62360546875,-11.3895625,-1.3135703125,-0.9708671875,-14.1978828125,-10.8261796875,-2.47262890625,-1.481125,-4.85285546875,-16.27353515625,-8.58192578125,-4.5604453125,-4.0015078125,-8.9985234375,-12.17609375,-5.542484375,-1.36075,-2.768546875,-10.85430859375,-7.6805859375,0.367097656249999,-4.17630078125,-3.13567578125,-2.5995,-5.9839375
-8.66141015625,-10.1756484375,-7.89066796875,-0.75864453125,-12.2551640625,-13.27760546875,-12.6525625,-1.9515703125,-2.4928671875,-13.5668828125,-10.8421796875,-3.24862890625,-0.579125,-4.57285546875,-15.63453515625,-7.94492578125,-3.0334453125,-4.0205078125,-9.3745234375,-12.08109375,-5.700484375,-2.32875,-3.080546875,-11.18930859375,-8.4285859375,0.42609765625,-5.63030078125,-4.56767578125,-3.8295,-6.6599375
-7.55841015625,-9.7826484375,-7.74566796875,-0.42364453125,-11.5811640625,-12.14260546875,-12.8765625,-2.1985703125,-4.1508671875,-12.1108828125,-9.6981796875,-2.81662890625,2.030875,-3.93285546875,-13.41953515625,-6.18092578125,-0.803445312499999,-3.3925078125,-8.4685234375,-10.25809375,-5.367484375,-2.11375,-2.520546875,-9.67630859375,-8.1755859375,0.77809765625,-5.51830078125,-4.68867578125,-3.8055,-6.2359375
-6.71441015625,-9.2796484375,-7.32866796875,-1.04464453125,-10.2131640625,-10.50360546875,-11.9255625,-1.6575703125,-5.7398671875,-10.2298828125,-7.7261796875,-1.33662890625,5.236875,-3.21685546875,-10.24653515625,-3.87992578125,1.2585546875,-2.3455078125,-6.6955234375,-7.31809375,-4.785484375,-0.95175,-1.450546875,-6.91830859375,-7.2435859375,1.21009765625,-4.34130078125,-3.85067578125,-3.1215,-5.2219375
-6.01941015625,-8.5166484375,-6.49766796875,-2.23464453125,-8.6871640625,-8.59860546875,-9.8435625,-0.2805703125,-6.8808671875,-8.2338828125,-5.3131796875,0.69537109375,7.566875,-2.56385546875,-6.70953515625,-1.55992578125,2.3615546875,-1.1345078125,-4.5545234375,-3.93209375,-3.959484375,0.61125,-0.284546875,-3.66930859375,-5.9025859375,1.53709765625,-2.87930078125,-2.64467578125,-2.5255,-4.2449375
-5.19041015625,-7.1926484375,-4.99466796875,-3.35164453125,-7.4471640625,-6.52760546875,-6.7895625,1.6024296875,-7.1108671875,-6.2518828125,-2.7411796875,2.78137109375,8.001875,-1.91085546875,-3.22353515625,0.548074218750001,2.1205546875,0.0494921875,-2.4355234375,-0.60809375,-2.533484375,1.93625,0.685453125,-0.55430859375,-4.2445859375,1.75809765625,-1.78230078125,-1.62167578125,-2.5375,-3.6919375
-4.04241015625,-5.1286484375,-2.66266796875,-3.90064453125,-6.6301640625,-4.33660546875,-3.0425625,3.4474296875,-6.1158671875,-4.3448828125,-0.2081796875,4.70237109375,6.500875,-1.13685546875,-0.102535156249999,2.44907421875,0.674554687500001,1.0594921875,-0.600523437500001,2.30090625,0.0165156250000003,2.52825,1.304453125,2.02169140625,-2.2705859375,2.04909765625,-1.35830078125,-1.10967578125,-3.2695,-3.5529375
-2.76441015625,-2.5546484375,0.31033203125,-3.85764453125,-6.1171640625,-2.20860546875,0.8874375,4.7224296875,-4.0338671875,-2.7268828125,1.9858203125,6.50037109375,3.925875,-0.31285546875,2.23846484375,4.12107421875,-1.3724453125,1.7144921875,0.693476562499999,4.44390625,3.953515625,2.18925,1.453453125,3.77369140625,-0.1215859375,2.61209765625,-1.60430078125,-1.17367578125,-4.4845,-3.5329375
-1.93041015625,-0.1766484375,3.29333203125,-3.66864453125,-5.7681640625,-0.59660546875,4.2044375,5.0594296875,-1.6038671875,-1.8488828125,3.2958203125,8.22037109375,1.446875,0.18814453125,3.19546484375,5.29007421875,-3.1764453125,1.7634921875,1.1314765625,5.38790625,8.893515625,1.06825,0.987453125,4.45369140625,1.8074140625,3.51409765625,-2.35430078125,-1.65367578125,-5.8005,-3.3049375
-2.18141015625,1.0793515625,5.36733203125,-3.90964453125,-5.5811640625,-0.09260546875,5.9924375,4.3904296875,0.0921328125000005,-2.1938828125,3.0678203125,9.66637109375,-0.168125,-0.11885546875,2.21846484375,5.48107421875,-3.9734453125,1.0034921875,0.444476562499999,4.76590625,13.759515625,-0.37975,-0.172546875,3.92169140625,3.0184140625,4.64509765625,-3.38030078125,-2.21767578125,-6.8435,-2.6849375
-3.73941015625,0.5483515625,5.71433203125,-4.81164453125,-5.6391640625,-1.03960546875,5.6104375,3.0734296875,0.2311328125,-3.8778828125,0.9868203125,10.44037109375,-0.874125,-1.43185546875,-0.727535156249999,4.35207421875,-3.3554453125,-0.5235078125,-1.3295234375,2.58290625,17.193515625,-1.52675,-1.870546875,2.32769140625,3.2264140625,5.82709765625,-4.41130078125,-2.43267578125,-7.3315,-1.6459375
-6.10341015625,-1.7186484375,4.10633203125,-6.02664453125,-5.9181640625,-3.15060546875,3.1124375,1.8664296875,-1.1868671875,-6.3578828125,-2.4861796875,10.24137109375,-1.100125,-3.36985546875,-4.83153515625,2.05707421875,-1.3694453125,-2.3975078125,-3.6755234375,-0.57809375,18.204515625,-1.80475,-3.645546875,0.21069140625,2.5984140625,6.99409765625,-5.14630078125,-1.92167578125,-7.1205,-0.2369375
-8.16441015625,-4.8086484375,1.21033203125,-6.81064453125,-6.1771640625,-5.44760546875,-0.604562500000001,1.5784296875,-3.2788671875,-8.5238828125,-6.0971796875,9.16337109375,-1.215125,-5.05685546875,-8.58153515625,-0.677925781249999,1.5915546875,-3.9365078125,-5.7145234375,-3.67109375,16.659515625,-0.98375,-4.873546875,-1.64030859375,1.7034140625,8.25009765625,-5.34630078125,-0.61567578125,-6.2955,1.4320625
-8.75641015625,-7.2776484375,-1.57366796875,-6.49764453125,-6.0541640625,-6.65460546875,-4.0665625,2.5774296875,-4.8028671875,-9.1838828125,-8.3011796875,7.73037109375,-1.169125,-5.56185546875,-10.40353515625,-2.83892578125,4.9445546875,-4.5315078125,-6.5955234375,-5.62009375,13.311515625,0.65025,-5.097546875,-2.53930859375,1.1664140625,9.73209765625,-4.96830078125,1.08332421875,-5.2195,3.1030625
-7.30841015625,-7.8446484375,-2.73466796875,-4.93364453125,-5.2761640625,-5.82060546875,-5.8075625,4.5524296875,-4.8828671875,-7.6828828125,-8.0101796875,6.63537109375,-0.599125,-4.42485546875,-9.42853515625,-3.61692578125,7.9695546875,-3.9675078125,-5.9185234375,-5.82509375,9.351515625,2.37425,-4.287546875,-2.23430859375,1.2684140625,11.33709765625,-4.23430078125,2.38732421875,-4.4525,4.3300625
-4.19741015625,-6.0556484375,-1.42466796875,-2.56164453125,-3.8131640625,-2.81960546875,-4.9735625,6.7044296875,-3.4268671875,-4.2648828125,-5.1201796875,6.38537109375,0.796875,-1.89585546875,-5.91953515625,-2.78892578125,9.8255546875,-2.5255078125,-3.9275234375,-4.43409375,5.789515625,3.35125,-2.862546875,-1.01030859375,1.7614140625,12.55509765625,-3.55630078125,2.48732421875,-4.5145,4.5820625
-0.55041015625,-2.4966484375,2.10633203125,-0.15064453125,-1.8931640625,1.56839453125,-1.6475625,8.1824296875,-1.0328671875,0.0681171875000004,-0.536179687500001,7.08937109375,2.966875,1.23514453125,-1.11653515625,-0.80192578125,9.7095546875,-0.7885078125,-1.3335234375,-2.20909375,3.020515625,3.05425,-1.433546875,0.492691406250001,2.0224140625,12.58309765625,-3.30230078125,0.98432421875,-5.6085,3.4810625
2.35958984375,1.5403515625,6.64233203125,1.62335546875,0.0998359375,6.01039453125,3.2164375,8.4544296875,1.4351328125,4.0711171875,4.2628203125,8.47237109375,5.492875,4.07814453125,3.38646484375,1.47807421875,7.1975546875,0.6974921875,1.0814765625,-0.11009375,0.813515625,1.53525,-0.453546875,1.64069140625,1.4254140625,10.70609765625,-3.57230078125,-1.87267578125,-7.4755,1.0040625
3.72958984375,4.6893515625,10.56533203125,2.45335546875,1.7648359375,9.20239453125,8.1404375,7.4774296875,3.2661328125,6.8261171875,7.8738203125,9.98537109375,7.819875,6.03714453125,6.37346484375,3.17007421875,2.5975546875,1.6674921875,2.8364765625,1.16990625,-1.331484375,-0.61775,-0.00954687499999984,2.11269140625,-0.2905859375,6.70209765625,-4.11030078125,-5.26667578125,-9.5045,-2.4629375
3.49358984375,6.0253515625,12.50333203125,2.41035546875,2.8148359375,10.37839453125,11.5834375,5.6494296875,4.1101328125,8.0441171875,9.4778203125,10.96237109375,9.510875,6.96314453125,7.45746484375,3.73107421875,-2.9594453125,2.1814921875,3.8934765625,1.45590625,-3.741484375,-2.59475,0.138453125,2.01569140625,-2.8845859375,1.04309765625,-4.43630078125,-8.17067578125,-11.0265,-6.2469375
2.16158984375,5.3093515625,11.80833203125,1.77435546875,3.1948359375,9.53739453125,12.4274375,3.5884296875,3.9821328125,8.0411171875,9.0378203125,10.80937109375,10.366875,7.08114453125,7.06646484375,3.09507421875,-7.8544453125,2.4844921875,4.5504765625,1.05790625,-6.334484375,-3.74675,0.348453125,1.76969140625,-5.7295859375,-5.20990234375,-4.09930078125,-9.77067578125,-11.6155,-9.6179375
0.45358984375,2.9703515625,8.76033203125,0.89435546875,3.1528359375,7.36439453125,10.3874375,1.8584296875,3.1811328125,7.4831171875,7.1658203125,9.24637109375,10.376875,6.81914453125,6.07246484375,1.61807421875,-10.6334453125,2.8444921875,5.2094765625,0.52490625,-8.687484375,-3.79575,0.910453125,1.87269140625,-8.0985859375,-10.72990234375,-2.89330078125,-9.71367578125,-11.2125,-11.9969375
-1.03541015625,-0.0846484375000003,4.46233203125,0.17535546875,3.2148359375,4.95139453125,6.1994375,0.8054296875,2.1961328125,7.0841171875,4.8478203125,6.51937109375,9.593875,6.64214453125,5.33046484375,-0.100925781249999,-10.6664453125,3.4574921875,6.1614765625,0.36690625,-10.301484375,-2.79175,1.977453125,2.67969140625,-9.4365859375,-14.34890234375,-0.91130078125,-8.10567578125,-10.0045,-13.0639375
-1.97441015625,-2.7776484375,0.43533203125,0.12235546875,3.9768359375,3.42439453125,1.4334375,0.5694296875,1.5941328125,7.3591171875,3.1258203125,3.43737109375,8.035875,6.91314453125,5.36046484375,-1.40492578125,-8.4294453125,4.4184921875,7.4764765625,0.861906250000001,-10.862484375,-0.94875,3.566453125,4.27969140625,-9.5145859375,-15.40690234375,1.53769921875,-5.32767578125,-8.2195,-12.7649375
-2.24641015625,-4.2346484375,-1.97666796875,1.23335546875,5.7658359375,3.54939453125,-2.0895625,1.1194296875,1.8431328125,8.4811171875,2.7958203125,1.10737109375,5.679875,7.77714453125,6.25646484375,-1.76592578125,-5.2184453125,5.6994921875,8.9974765625,1.98390625,-10.362484375,1.43525,5.563453125,6.45769140625,-8.4515859375,-13.93890234375,4.05669921875,-1.88167578125,-6.0145,-11.2709375
-1.86441015625,-4.1006484375,-2.16066796875,3.68335546875,8.3328359375,5.42339453125,-3.0555625,2.1874296875,3.0961328125,10.2471171875,4.1268203125,0.448371093750001,2.569875,9.09514453125,7.75546484375,-0.957925781249999,-2.4654453125,7.0994921875,10.3894765625,3.44290625,-9.085484375,3.94325,7.681453125,8.73869140625,-6.6445859375,-10.62990234375,6.23769921875,1.64632421875,-3.5615,-8.9719375
-0.93641015625,-2.6876484375,-0.49066796875,7.00035546875,10.8228359375,8.37939453125,-1.2185625,3.2554296875,5.0431328125,12.1481171875,6.7278203125,1.74737109375,-0.991125,10.45514453125,9.38746484375,0.83607421875,-1.0674453125,8.2434921875,11.2384765625,4.81690625,-7.471484375,6.01325,9.446453125,10.50969140625,-4.6305859375,-6.54190234375,7.69269921875,4.59132421875,-1.1825,-6.4269375
0.29958984375,-0.840648437500001,1.88933203125,10.05635546875,12.1138359375,11.22639453125,2.5294375,3.7464296875,6.9651328125,13.5371171875,9.7048203125,4.51337109375,-4.307125,11.29914453125,10.66846484375,3.10007421875,-1.0934453125,8.6784921875,11.2114765625,5.74290625,-5.885484375,7.08325,10.321453125,11.23569140625,-2.8785859375,-2.69190234375,8.12669921875,6.35032421875,0.6505,-4.2019375
1.46958984375,0.4623515625,3.67233203125,11.52035546875,11.3778359375,12.76239453125,6.6164375,3.3834296875,8.0031328125,13.8651171875,12.0428203125,7.70237109375,-6.414125,11.14814453125,11.27346484375,5.23007421875,-1.9164453125,8.0854921875,10.2134765625,6.10790625,-4.417484375,6.87025,9.944453125,10.71269140625,-1.5725859375,0.34809765625,7.48169921875,6.63232421875,1.5365,-2.6149375
2.14558984375,0.5963515625,4.06033203125,10.55635546875,8.5348359375,12.29339453125,9.4884375,2.3724296875,7.5451328125,12.8961171875,13.0128203125,10.17337109375,-6.503125,9.82214453125,11.11546484375,6.80207421875,-2.5854453125,6.4694921875,8.4704765625,6.11390625,-2.842484375,5.57225,8.360453125,9.19169140625,-0.516585937499999,2.62609765625,6.04669921875,5.64732421875,1.4025,-1.5869375
1.98958984375,-0.4266484375,3.11833203125,7.31035546875,4.3568359375,9.90339453125,10.1914375,1.2764296875,5.5331328125,10.8121171875,12.3848203125,11.15337109375,-4.417125,7.55214453125,10.32046484375,7.69407421875,-2.2394453125,4.2184921875,6.4774765625,6.15390625,-0.827484375,3.80425,6.075453125,7.28869140625,0.7304140625,4.63509765625,4.40769921875,4.04632421875,0.5945,-0.7199375
0.89958984375,-2.0346484375,1.61233203125,2.87935546875,0.2078359375,6.37939453125,8.6204375,0.6844296875,2.5511328125,8.1781171875,10.4398203125,10.49737109375,-0.835125,4.93914453125,9.15946484375,8.00807421875,-0.429445312499999,1.9914921875,4.8214765625,6.56190625,1.756515625,2.32225,3.858453125,5.72169140625,2.5564140625,6.89909765625,3.20469921875,2.63232421875,-0.2815,0.4420625
-0.90641015625,-3.4456484375,0.50433203125,-1.17364453125,-2.4561640625,2.89039453125,5.4664375,0.8994296875,-0.3578671875,5.7781171875,7.8618203125,8.70337109375,3.072875,2.76114453125,7.99746484375,7.95007421875,2.6895546875,0.5114921875,3.9894765625,7.43190625,4.649515625,1.69725,2.434453125,5.02069140625,5.0224140625,9.58909765625,2.84769921875,2.02532421875,-0.6575,2.1400625
-2.86641015625,-4.0256484375,0.43933203125,-3.47564453125,-2.6481640625,0.56739453125,1.9734375,1.7994296875,-2.0868671875,4.3961171875,5.5598203125,6.71237109375,6.273875,1.72714453125,7.27246484375,7.76707421875,6.3725546875,0.3524921875,4.2394765625,8.60690625,7.297515625,2.12725,2.222453125,5.36169140625,7.7894140625,12.39409765625,3.35469921875,2.46132421875,-0.2575,4.2550625
-4.17541015625,-3.4936484375,1.48433203125,-3.34864453125,-0.2481640625,0.15139453125,-0.443562500000001,2.9214296875,-1.9118671875,4.5911171875,4.4258203125,5.56837109375,8.345875,2.24714453125,7.42446484375,7.75907421875,9.5265546875,1.7684921875,5.5424765625,9.83690625,9.162515625,3.43125,3.220453125,6.55769140625,10.2774140625,14.70809765625,4.38869921875,3.76232421875,0.8145,6.3450625
-4.03741015625,-1.9466484375,3.16433203125,-0.98664453125,3.9518359375,1.79239453125,-0.6985625,3.7594296875,0.220132812500001,6.5031171875,5.0488203125,6.01737109375,9.485875,4.28514453125,8.74646484375,8.23607421875,11.1725546875,4.5744921875,7.6034765625,10.93890625,10.003515625,5.17825,5.063453125,8.20569140625,11.9404140625,15.96509765625,5.45069921875,5.47432421875,2.1825,7.8600625
-2.01141015625,0.2453515625,4.77033203125,2.71535546875,8.6128359375,5.05239453125,1.5134375,4.1034296875,3.6821328125,9.7631171875,7.4838203125,8.14737109375,10.133875,7.34414453125,11.20946484375,9.36907421875,10.9375546875,8.1434921875,9.9254765625,11.85490625,9.966515625,6.84725,7.175453125,9.85369140625,12.5044140625,15.93109765625,6.10769921875,7.04732421875,3.4015,8.4280625
1.70258984375,2.6263515625,5.77633203125,6.56135546875,12.4308359375,9.07439453125,5.5744375,4.1534296875,7.4361328125,13.5801171875,11.1538203125,11.28937109375,10.559875,10.59514453125,14.36346484375,11.02107421875,9.2775546875,11.5334921875,11.9304765625,12.58890625,9.444515625,7.96225,8.959453125,11.15269140625,12.0494140625,14.80209765625,6.15769921875,8.00232421875,4.1575,8.0540625
6.21058984375,4.8233515625,6.12833203125,9.51035546875,14.5888359375,12.84039453125,10.1994375,4.3124296875,10.4171328125,16.9551171875,14.9708203125,14.27537109375,10.673875,13.12014453125,17.40446484375,12.73307421875,7.2305546875,13.7614921875,13.1104765625,13.12090625,8.853515625,8.16825,9.954453125,11.90869140625,10.9534140625,13.10609765625,5.68069921875,8.04532421875,4.3745,7.1250625
10.19658984375,6.5773515625,6.16133203125,11.00635546875,14.8458359375,15.40239453125,13.9524375,4.8544296875,11.8881328125,18.9511171875,17.6518203125,15.95737109375,10.104875,14.17814453125,19.40046484375,13.88307421875,5.7985546875,14.1204921875,13.1484765625,13.33890625,8.443515625,7.28225,9.914453125,12.05969140625,9.6994140625,11.46909765625,4.95669921875,7.13832421875,4.1895,6.2150625
12.40358984375,7.6283515625,6.20233203125,11.07635546875,13.3488359375,16.06639453125,15.7194375,5.7374296875,11.6301328125,18.9151171875,18.1178203125,15.67337109375,8.442875,13.40514453125,19.58546484375,13.92207421875,5.3515546875,12.4314921875,11.9844765625,13.02290625,8.213515625,5.33725,8.818453125,11.61169140625,8.6414140625,10.34009765625,4.28669921875,5.51732421875,3.8485,5.7990625
12.13658984375,7.6703515625,6.21133203125,10.16435546875,10.4368359375,14.53739453125,14.9924375,6.6614296875,9.9401328125,16.6511171875,15.8388203125,13.44337109375,5.525875,10.91114453125,17.60946484375,12.51807421875,5.4545546875,9.1034921875,9.7934765625,11.89690625,7.929515625,2.63025,6.839453125,10.59069140625,7.8354140625,9.81009765625,3.83369921875,3.64432421875,3.5685,6.0150625
9.52758984375,6.4813515625,5.78833203125,8.82235546875,6.6258359375,11.03539453125,11.9564375,7.2314296875,7.4571328125,12.5311171875,11.0188203125,9.84137109375,1.661875,7.27014453125,13.66746484375,9.61707421875,5.2505546875,4.9964921875,6.9504765625,9.75090625,7.252515625,-0.25875,4.333453125,9.07469140625,7.0424140625,9.63809765625,3.58469921875,2.05732421875,3.4435,6.5980625
5.42958984375,4.1393515625,4.53133203125,7.44835546875,2.6878359375,6.31639453125,7.3954375,7.1204296875,4.9171328125,7.4741171875,4.5668203125,5.69937109375,-2.349125,3.39514453125,8.47046484375,5.45107421875,4.1125546875,1.1474921875,3.9734765625,6.62890625,5.922515625,-2.56875,1.814453125,7.26869140625,5.9184140625,9.41809765625,3.43969921875,1.16432421875,3.4355,7.0160625
1.00558984375,1.1053515625,2.41933203125,6.19835546875,-0.3921640625,1.51939453125,2.4404375,6.2224296875,2.9161328125,2.7021171875,-2.1281796875,1.82537109375,-5.483125,0.27514453125,3.06346484375,0.535074218750001,2.1225546875,-1.5695078125,1.4414765625,2.92990625,3.916515625,-3.59775,-0.154546875,5.52369140625,4.2684140625,8.78709765625,3.32769921875,1.08532421875,3.4135,6.7460625
-2.71841015625,-1.8966484375,-0.0716679687500004,5.06535546875,-1.7201640625,-2.17860546875,-1.7625625,4.7344296875,1.7561328125,-0.6658828125,-7.5811796875,-1.16162890625,-6.979125,-1.34385546875,-1.45753515625,-4.36392578125,0.0605546875000016,-2.7125078125,-0.141523437500001,-0.64809375,1.486515625,-3.01375,-1.145546875,4.23669140625,2.1984140625,7.54309765625,3.23369921875,1.60832421875,3.2275,5.5220625
-5.09441015625,-4.1186484375,-2.16766796875,3.99535546875,-0.9571640625,-3.97460546875,-4.3745625,3.1214296875,1.3761328125,-2.0178828125,-10.6581796875,-2.84962890625,-6.755125,-1.21785546875,-4.24653515625,-8.34292578125,-1.0794453125,-2.3825078125,-0.499523437500001,-3.33009375,-0.934484375,-1.03975,-1.025546875,3.66969140625,0.0854140625000008,5.70509765625,3.14269921875,2.31132421875,2.7705,3.4290625
-5.85741015625,-5.0196484375,-3.17266796875,2.95435546875,1.3638359375,-3.73260546875,-5.0355625,1.9914296875,1.3941328125,-1.4498828125,-10.9321796875,-3.00962890625,-5.445125,0.30414453125,-4.94653515625,-10.59292578125,-0.720445312499999,-1.0985078125,0.306476562499999,-4.55809375,-2.897484375,1.64525,-0.0105468750000002,3.80369140625,-1.6085859375,3.50309765625,2.97069921875,2.77532421875,2.0395,0.8460625
-5.05141015625,-4.4406484375,-2.78566796875,1.94435546875,3.9338359375,-2.00160546875,-3.8745625,1.9334296875,1.2661328125,0.287117187500001,-8.7871796875,-1.59762890625,-3.952125,2.40814453125,-3.77953515625,-10.66492578125,0.901554687500001,0.4724921875,1.8744765625,-4.21009375,-4.086484375,4.23925,1.449453125,4.33469140625,-2.5735859375,1.31509765625,2.54969921875,2.80032421875,1.1645,-1.6899375
-2.98541015625,-2.6576484375,-1.19766796875,0.99935546875,5.2358359375,0.26139453125,-1.3715625,3.3354296875,0.5251328125,2.1141171875,-5.2171796875,1.20237109375,-2.816125,4.10714453125,-1.46253515625,-8.65892578125,2.8545546875,1.8044921875,3.5784765625,-2.63809375,-4.385484375,6.17625,2.858453125,4.81469140625,-2.7815859375,-0.45090234375,1.70769921875,2.51032421875,0.3785,-3.6419375
-0.22041015625,-0.2576484375,1.06133203125,0.18635546875,4.3008359375,2.12739453125,1.8574375,6.1574296875,-1.0098671875,3.0741171875,-1.4261796875,4.94137109375,-1.911125,4.60814453125,1.05346484375,-5.20292578125,4.0485546875,2.6664921875,4.7854765625,-0.49509375,-3.834484375,7.30425,3.860453125,4.86869140625,-2.4225859375,-1.46390234375,0.40969921875,2.28732421875,-0.0385,-4.6019375
2.48758984375,2.0903515625,3.39533203125,-0.41864453125,1.2228359375,3.05239453125,5.2234375,9.7754296875,-3.1758671875,2.7201171875,1.5828203125,8.94437109375,-0.702125,3.59214453125,2.91146484375,-1.21692578125,3.8925546875,3.0784921875,5.0644765625,1.55890625,-2.524484375,7.79725,4.322453125,4.36969140625,-1.7245859375,-1.50690234375,-1.13130078125,2.56132421875,0.1455,-4.3879375
4.32658984375,3.8303515625,5.35033203125,-0.79364453125,-2.8671640625,2.99339453125,8.2254375,13.1164296875,-5.5848671875,1.2211171875,3.2728203125,12.41737109375,1.148875,1.27914453125,3.60546484375,2.39007421875,2.6655546875,3.1274921875,4.2984765625,3.08990625,-0.530484375,7.91625,4.275453125,3.45969140625,-0.8065859375,-0.48090234375,-2.51730078125,3.53732421875,0.9935,-3.0799375
4.66958984375,4.6223515625,6.67633203125,-1.01764453125,-6.3441640625,2.28639453125,10.4354375,15.1394296875,-7.7878671875,-0.8358828125,3.6458203125,14.62637109375,3.355875,-1.72985546875,3.07346484375,4.98207421875,1.3625546875,2.8154921875,2.6614765625,3.95290625,2.046515625,7.80125,3.777453125,2.41269140625,0.319414062500001,1.55409765625,-3.37630078125,5.01532421875,2.3115,-0.9849375
3.36458984375,4.4043515625,7.30633203125,-1.23764453125,-7.8621640625,1.40339453125,11.5174375,15.3754296875,-9.3878671875,-2.7778828125,3.1238203125,15.10337109375,5.056875,-4.69985546875,1.63746484375,6.31507421875,1.1195546875,2.0644921875,0.520476562499999,4.22590625,4.984515625,7.40225,2.821453125,1.44569140625,1.6374140625,4.31909765625,-3.60730078125,6.39132421875,3.6435,1.4360625
0.93658984375,3.4663515625,7.34433203125,-1.53664453125,-6.9391640625,0.75739453125,11.3224375,14.1744296875,-10.0748671875,-4.0838828125,2.3208203125,13.81937109375,5.275875,-6.96385546875,-0.142535156249999,6.52607421875,2.5855546875,0.8594921875,-1.6735234375,4.10290625,7.892515625,6.54725,1.373453125,0.59569140625,3.0234140625,7.29609765625,-3.44630078125,6.86432421875,4.3965,3.6280625
-1.48641015625,2.4273515625,7.05033203125,-1.79264453125,-4.1031640625,0.61439453125,10.0034375,12.5094296875,-9.6458671875,-4.4748828125,1.8178203125,11.25037109375,3.472875,-8.04785546875,-1.64453515625,6.02907421875,5.6175546875,-0.6115078125,-3.4545234375,3.82690625,10.275515625,5.08925,-0.510546875,-0.23130859375,4.2354140625,9.81709765625,-3.32830078125,5.78132421875,4.0595,5.0190625
-2.59141015625,2.0373515625,6.78333203125,-1.63764453125,-0.5511640625,1.11139453125,8.0424375,11.5114296875,-8.0258671875,-3.8788828125,2.0198203125,8.25437109375,-0.0981249999999998,-7.72885546875,-2.32853515625,5.38107421875,9.4285546875,-1.9445078125,-4.4105234375,3.66290625,11.708515625,3.05225,-2.588546875,-1.11630859375,5.0264140625,11.25609765625,-3.61030078125,2.95432421875,2.4265,5.1650625
-1.48041015625,2.8493515625,6.88533203125,-0.62864453125,2.4608359375,2.28939453125,6.1504375,11.9454296875,-5.3218671875,-2.3708828125,3.1078203125,5.79637109375,-4.378125,-6.07085546875,-1.86153515625,5.12307421875,13.0315546875,-2.6655078125,-4.2565234375,3.84490625,12.019515625,0.70025,-4.440546875,-1.97730859375,5.2814140625,11.25309765625,-4.35330078125,-1.19967578125,-0.2895,3.9240625
1.85558984375,4.9303515625,7.56333203125,1.44235546875,4.1788359375,4.08239453125,5.0554375,13.8534296875,-1.8738671875,-0.1288828125,5.0248203125,4.61837109375,-7.862125,-3.40285546875,-0.20053515625,5.62707421875,15.6605546875,-2.4475078125,-2.9175234375,4.51490625,11.357515625,-1.53375,-5.597546875,-2.55630859375,5.0834140625,9.86409765625,-5.29230078125,-5.80067578125,-3.5145,1.5430625
6.43958984375,7.7893515625,8.83133203125,4.30135546875,4.5868359375,6.28239453125,5.2194375,16.5464296875,1.7571328125,2.5871171875,7.4948203125,5.00437109375,-9.222125,-0.25785546875,2.37346484375,6.95307421875,16.9555546875,-1.2815078125,-0.599523437500001,5.63890625,10.113515625,-3.20475,-5.725546875,-2.54230859375,4.6474140625,7.53609765625,-6.00130078125,-9.84267578125,-6.5205,-1.4099375
10.71258984375,10.5803515625,10.53433203125,7.24135546875,4.2988359375,8.56139453125,6.6544375,18.9834296875,4.9431328125,5.4501171875,10.0898203125,6.73737109375,-7.897125,2.76414453125,5.32446484375,8.80007421875,16.9415546875,0.5044921875,2.2244765625,6.98490625,8.729515625,-4.03675,-4.792546875,-1.75630859375,4.1684140625,4.91809765625,-6.16930078125,-12.56067578125,-8.7065,-4.2639375
13.26958984375,12.5183515625,12.44933203125,9.47035546875,4.2018359375,10.58139453125,8.9414375,20.3414296875,7.2471328125,8.1311171875,12.3778203125,9.26937109375,-4.338125,5.17514453125,8.03946484375,10.62707421875,15.9265546875,2.4064921875,4.9424765625,8.19090625,7.531515625,-3.99675,-3.093546875,-0.25830859375,3.7194140625,2.62909765625,-5.77330078125,-13.65767578125,-9.7985,-6.4479375
13.55358984375,13.2653515625,14.36533203125,10.53635546875,5.0378359375,12.12739453125,11.4794375,20.4114296875,8.6151328125,10.3911171875,14.0748203125,11.97937109375,0.249875,6.76214453125,10.04246484375,11.88907421875,14.3755546875,4.0004921875,7.0084765625,8.91690625,6.661515625,-3.25675,-1.120546875,1.66769140625,3.2554140625,1.10909765625,-5.07330078125,-13.30267578125,-9.9025,-7.6069375
12.05958984375,13.0283515625,16.07033203125,10.52135546875,7.0648359375,13.15539453125,13.7634375,19.6024296875,9.3201328125,12.1311171875,15.0988203125,14.36937109375,4.481875,7.63014453125,11.11146484375,12.26807421875,12.7435546875,5.1314921875,8.1104765625,8.97390625,6.112515625,-2.08375,0.646453125,3.61769140625,2.7164140625,0.59009765625,-4.41230078125,-11.97067578125,-9.3945,-7.6269375
9.94858984375,12.2983515625,17.25133203125,9.89835546875,9.9008359375,13.69339453125,15.5074375,18.6074296875,9.6801328125,13.3271171875,15.5098203125,16.11637109375,7.334875,8.05414453125,11.25146484375,11.74507421875,11.2875546875,5.9054921875,8.2334765625,8.35990625,5.774515625,-0.73275,1.911453125,5.17969140625,2.0814140625,1.08909765625,-4.01930078125,-10.21867578125,-8.7415,-6.6119375
8.32158984375,11.4443515625,17.48333203125,9.18635546875,12.6308359375,13.70239453125,16.5584375,17.9794296875,9.7811328125,13.8921171875,15.3778203125,17.02137109375,8.431875,8.23414453125,10.56746484375,10.48707421875,9.9695546875,6.5044921875,7.5664765625,7.17290625,5.465515625,0.60725,2.591453125,6.01569140625,1.3584140625,2.36809765625,-3.91630078125,-8.51167578125,-8.3235,-4.8959375
7.64258984375,10.5053515625,16.38233203125,8.64435546875,14.1648359375,13.01439453125,16.7594375,17.7964296875,9.4181328125,13.6251171875,14.6558203125,16.98437109375,8.029875,8.14714453125,9.14746484375,8.68007421875,8.5625546875,6.9984921875,6.3744765625,5.52590625,4.962515625,1.82225,2.759453125,5.94169140625,0.529414062500001,3.94109765625,-3.94730078125,-7.11867578125,-8.3075,-3.0479375
7.60258984375,9.2723515625,13.86333203125,8.16935546875,13.7068359375,11.42339453125,15.9194375,17.5754296875,8.2951328125,12.3231171875,13.1608203125,16.03637109375,6.812875,7.60014453125,7.04246484375,6.44807421875,6.9015546875,7.2914921875,4.9114765625,3.53090625,4.092515625,2.87425,2.568453125,4.98769140625,-0.4455859375,5.19609765625,-3.87430078125,-6.08067578125,-8.6125,-1.7939375
7.40658984375,7.4973515625,10.23433203125,7.40635546875,11.0918359375,8.83839453125,13.9084375,16.5044296875,6.2711328125,9.9481171875,10.6758203125,14.36937109375,5.580875,6.42014453125,4.33046484375,3.87407421875,5.0595546875,7.2254921875,3.3944765625,1.34590625,2.823515625,3.79025,2.194453125,3.40369140625,-1.5805859375,5.60609765625,-3.46830078125,-5.25467578125,-8.9665,-1.8209375
6.27758984375,5.0553515625,6.02433203125,5.99335546875,6.7578359375,5.36539453125,10.7634375,13.9034296875,3.4571328125,6.6851171875,7.1088203125,12.27037109375,4.934875,4.59114453125,1.14746484375,1.04507421875,3.2985546875,6.7074921875,1.9784765625,-0.84409375,1.266515625,4.63625,1.777453125,1.54069140625,-2.8345859375,4.92309765625,-2.59930078125,-4.41767578125,-9.0725,-3.5179375
3.89258984375,1.9883515625,1.67133203125,3.79835546875,1.4138359375,1.26039453125,6.7234375,9.6494296875,0.1051328125,2.8381171875,2.5978203125,9.99237109375,5.051875,2.24814453125,-2.33653515625,-1.95292578125,1.8295546875,5.7674921875,0.7164765625,-2.91409375,-0.414484375,5.47525,1.386453125,-0.32630859375,-4.1415859375,3.26109765625,-1.28830078125,-3.41167578125,-8.7775,-6.7709375
0.56358984375,-1.4976484375,-2.65566796875,1.03635546875,-4.3071640625,-3.17660546875,2.1804375,4.2944296875,-3.5268671875,-1.2968828125,-2.4801796875,7.65937109375,5.678875,-0.39485546875,-5.98453515625,-5.05192578125,0.6145546875,4.5554921875,-0.458523437500001,-4.88509375,-2.109484375,6.33625,1.020453125,-2.11430859375,-5.4565859375,1.04609765625,0.292699218749999,-2.22667578125,-8.1695,-10.9369375
0.56358984375,-1.4976484375,-2.65566796875,1.03635546875,-4.3071640625,-3.17660546875,2.1804375,4.2944296875,-3.5268671875,-1.2968828125,-2.4801796875,7.65937109375,5.678875,-0.39485546875,-5.98453515625,-5.05192578125,0.6145546875,4.5554921875,-0.458523437500001,-4.88509375,-2.109484375,6.33625,1.020453125,-2.11430859375,-5.4565859375,1.04609765625,0.292699218749999,-2.22667578125,-8.1695,-10.9369375
